Cycle,Area(mm^2),PeakDynamic(W),SubthresholdLeakage(W),GateLeakage(W),RunTimeDynamic(W)
4000000,0.0324,0.013523,0.002678,0.000431,0.009285
4001000,0.0324,0.013523,0.002678,0.000431,0.007992
4002000,0.0324,0.013523,0.002678,0.000431,0.008227
4003000,0.0324,0.013523,0.002678,0.000431,0.008109
4004000,0.0324,0.013523,0.002678,0.000431,0.008109
4005000,0.0324,0.013523,0.002678,0.000431,0.008580
4006000,0.0324,0.013523,0.002678,0.000431,0.007992
4007000,0.0324,0.013523,0.002678,0.000431,0.008345
4008000,0.0324,0.013523,0.002678,0.000431,0.008109
4009000,0.0324,0.013523,0.002678,0.000431,0.008109
4010000,0.0324,0.013523,0.002678,0.000431,0.007639
4011000,0.0324,0.013523,0.002678,0.000431,0.008227
4012000,0.0324,0.013523,0.002678,0.000431,0.007757
4013000,0.0324,0.013523,0.002678,0.000431,0.008580
4014000,0.0324,0.013523,0.002678,0.000431,0.008109
4015000,0.0324,0.013523,0.002678,0.000431,0.008227
4016000,0.0324,0.013523,0.002678,0.000431,0.007874
4017000,0.0324,0.013523,0.002678,0.000431,0.007522
4018000,0.0324,0.013523,0.002678,0.000431,0.007287
4019000,0.0324,0.013523,0.002678,0.000431,0.007639
4020000,0.0324,0.013523,0.002678,0.000431,0.007169
4021000,0.0324,0.013523,0.002678,0.000431,0.007639
4022000,0.0324,0.013523,0.002678,0.000431,0.007404
4023000,0.0324,0.013523,0.002678,0.000431,0.007287
4024000,0.0324,0.013523,0.002678,0.000431,0.007639
4025000,0.0324,0.013523,0.002678,0.000431,0.007522
4026000,0.0324,0.013523,0.002678,0.000431,0.007052
4027000,0.0324,0.013523,0.002678,0.000431,0.007287
4028000,0.0324,0.013523,0.002678,0.000431,0.007639
4029000,0.0324,0.013523,0.002678,0.000431,0.007404
4030000,0.0324,0.013523,0.002678,0.000431,0.007169
4031000,0.0324,0.013523,0.002678,0.000431,0.007757
4032000,0.0324,0.013523,0.002678,0.000431,0.007287
4033000,0.0324,0.013523,0.002678,0.000431,0.007169
4034000,0.0324,0.013523,0.002678,0.000431,0.007522
4035000,0.0324,0.013523,0.002678,0.000431,0.007874
4036000,0.0324,0.013523,0.002678,0.000431,0.007639
4037000,0.0324,0.013523,0.002678,0.000431,0.007757
4038000,0.0324,0.013523,0.002678,0.000431,0.007169
4039000,0.0324,0.013523,0.002678,0.000431,0.007757
4040000,0.0324,0.013523,0.002678,0.000431,0.007404
4041000,0.0324,0.013523,0.002678,0.000431,0.008109
4042000,0.0324,0.013523,0.002678,0.000431,0.007169
4043000,0.0324,0.013523,0.002678,0.000431,0.008109
4044000,0.0324,0.013523,0.002678,0.000431,0.007757
4045000,0.0324,0.013523,0.002678,0.000431,0.007404
4046000,0.0324,0.013523,0.002678,0.000431,0.007757
4047000,0.0324,0.013523,0.002678,0.000431,0.007404
4048000,0.0324,0.013523,0.002678,0.000431,0.007169
4049000,0.0324,0.013523,0.002678,0.000431,0.007757
4050000,0.0324,0.013523,0.002678,0.000431,0.007404
4051000,0.0324,0.013523,0.002678,0.000431,0.007052
4052000,0.0324,0.013523,0.002678,0.000431,0.007287
4053000,0.0324,0.013523,0.002678,0.000431,0.007287
4054000,0.0324,0.013523,0.002678,0.000431,0.007757
4055000,0.0324,0.013523,0.002678,0.000431,0.007169
4056000,0.0324,0.013523,0.002678,0.000431,0.007874
4057000,0.0324,0.013523,0.002678,0.000431,0.007404
4058000,0.0324,0.013523,0.002678,0.000431,0.007169
4059000,0.0324,0.013523,0.002678,0.000431,0.007639
4060000,0.0324,0.013523,0.002678,0.000431,0.007639
4061000,0.0324,0.013523,0.002678,0.000431,0.008227
4062000,0.0324,0.013523,0.002678,0.000431,0.007639
4063000,0.0324,0.013523,0.002678,0.000431,0.007522
4064000,0.0324,0.013523,0.002678,0.000431,0.007404
4065000,0.0324,0.013523,0.002678,0.000431,0.007169
4066000,0.0324,0.013523,0.002678,0.000431,0.007169
4067000,0.0324,0.013523,0.002678,0.000431,0.006464
4068000,0.0324,0.013523,0.002678,0.000431,0.007287
4069000,0.0324,0.013523,0.002678,0.000431,0.006582
4070000,0.0324,0.013523,0.002678,0.000431,0.007169
4071000,0.0324,0.013523,0.002678,0.000431,0.006699
4072000,0.0324,0.013523,0.002678,0.000431,0.007287
4073000,0.0324,0.013523,0.002678,0.000431,0.007052
4074000,0.0324,0.013523,0.002678,0.000431,0.006934
4075000,0.0324,0.013523,0.002678,0.000431,0.006347
4076000,0.0324,0.013523,0.002678,0.000431,0.007287
4077000,0.0324,0.013523,0.002678,0.000431,0.006934
4078000,0.0324,0.013523,0.002678,0.000431,0.006934
4079000,0.0324,0.013523,0.002678,0.000431,0.006817
4080000,0.0324,0.013523,0.002678,0.000431,0.006817
4081000,0.0324,0.013523,0.002678,0.000431,0.006699
4082000,0.0324,0.013523,0.002678,0.000431,0.007287
4083000,0.0324,0.013523,0.002678,0.000431,0.006934
4084000,0.0324,0.013523,0.002678,0.000431,0.006699
4085000,0.0324,0.013523,0.002678,0.000431,0.006817
4086000,0.0324,0.013523,0.002678,0.000431,0.006817
4087000,0.0324,0.013523,0.002678,0.000431,0.006464
4088000,0.0324,0.013523,0.002678,0.000431,0.006934
4089000,0.0324,0.013523,0.002678,0.000431,0.006817
4090000,0.0324,0.013523,0.002678,0.000431,0.006699
4091000,0.0324,0.013523,0.002678,0.000431,0.007052
4092000,0.0324,0.013523,0.002678,0.000431,0.007169
4093000,0.0324,0.013523,0.002678,0.000431,0.006699
4094000,0.0324,0.013523,0.002678,0.000431,0.006817
4095000,0.0324,0.013523,0.002678,0.000431,0.006817
4096000,0.0324,0.013523,0.002678,0.000431,0.007052
4097000,0.0324,0.013523,0.002678,0.000431,0.006817
4098000,0.0324,0.013523,0.002678,0.000431,0.007052
4099000,0.0324,0.013523,0.002678,0.000431,0.006347
4100000,0.0324,0.013523,0.002678,0.000431,0.007052
4101000,0.0324,0.013523,0.002678,0.000431,0.006934
4102000,0.0324,0.013523,0.002678,0.000431,0.006229
4103000,0.0324,0.013523,0.002678,0.000431,0.006699
4104000,0.0324,0.013523,0.002678,0.000431,0.007052
4105000,0.0324,0.013523,0.002678,0.000431,0.006582
4106000,0.0324,0.013523,0.002678,0.000431,0.006582
4107000,0.0324,0.013523,0.002678,0.000431,0.007052
4108000,0.0324,0.013523,0.002678,0.000431,0.007052
4109000,0.0324,0.013523,0.002678,0.000431,0.007052
4110000,0.0324,0.013523,0.002678,0.000431,0.006699
4111000,0.0324,0.013523,0.002678,0.000431,0.006817
4112000,0.0324,0.013523,0.002678,0.000431,0.007287
4113000,0.0324,0.013523,0.002678,0.000431,0.006817
4114000,0.0324,0.013523,0.002678,0.000431,0.006934
4115000,0.0324,0.013523,0.002678,0.000431,0.006817
4116000,0.0324,0.013523,0.002678,0.000431,0.006582
4117000,0.0324,0.013523,0.002678,0.000431,0.006934
4118000,0.0324,0.013523,0.002678,0.000431,0.006699
4119000,0.0324,0.013523,0.002678,0.000431,0.006934
4120000,0.0324,0.013523,0.002678,0.000431,0.007169
4121000,0.0324,0.013523,0.002678,0.000431,0.006934
4122000,0.0324,0.013523,0.002678,0.000431,0.006817
4123000,0.0324,0.013523,0.002678,0.000431,0.006582
4124000,0.0324,0.013523,0.002678,0.000431,0.006347
4125000,0.0324,0.013523,0.002678,0.000431,0.007287
4126000,0.0324,0.013523,0.002678,0.000431,0.006817
4127000,0.0324,0.013523,0.002678,0.000431,0.006817
4128000,0.0324,0.013523,0.002678,0.000431,0.007052
4129000,0.0324,0.013523,0.002678,0.000431,0.006817
4130000,0.0324,0.013523,0.002678,0.000431,0.006582
4131000,0.0324,0.013523,0.002678,0.000431,0.007052
4132000,0.0324,0.013523,0.002678,0.000431,0.007287
4133000,0.0324,0.013523,0.002678,0.000431,0.006347
4134000,0.0324,0.013523,0.002678,0.000431,0.006817
4135000,0.0324,0.013523,0.002678,0.000431,0.006699
4136000,0.0324,0.013523,0.002678,0.000431,0.007169
4137000,0.0324,0.013523,0.002678,0.000431,0.007404
4138000,0.0324,0.013523,0.002678,0.000431,0.006464
4139000,0.0324,0.013523,0.002678,0.000431,0.007522
4140000,0.0324,0.013523,0.002678,0.000431,0.007052
4141000,0.0324,0.013523,0.002678,0.000431,0.006464
4142000,0.0324,0.013523,0.002678,0.000431,0.007169
4143000,0.0324,0.013523,0.002678,0.000431,0.007169
4144000,0.0324,0.013523,0.002678,0.000431,0.006817
4145000,0.0324,0.013523,0.002678,0.000431,0.007169
4146000,0.0324,0.013523,0.002678,0.000431,0.006934
4147000,0.0324,0.013523,0.002678,0.000431,0.006464
4148000,0.0324,0.013523,0.002678,0.000431,0.006464
4149000,0.0324,0.013523,0.002678,0.000431,0.007287
4150000,0.0324,0.013523,0.002678,0.000431,0.006464
4151000,0.0324,0.013523,0.002678,0.000431,0.006817
4152000,0.0324,0.013523,0.002678,0.000431,0.006464
4153000,0.0324,0.013523,0.002678,0.000431,0.007052
4154000,0.0324,0.013523,0.002678,0.000431,0.006817
4155000,0.0324,0.013523,0.002678,0.000431,0.007052
4156000,0.0324,0.013523,0.002678,0.000431,0.006817
4157000,0.0324,0.013523,0.002678,0.000431,0.006817
4158000,0.0324,0.013523,0.002678,0.000431,0.006934
4159000,0.0324,0.013523,0.002678,0.000431,0.006934
4160000,0.0324,0.013523,0.002678,0.000431,0.006934
4161000,0.0324,0.013523,0.002678,0.000431,0.007169
4162000,0.0324,0.013523,0.002678,0.000431,0.006699
4163000,0.0324,0.013523,0.002678,0.000431,0.006934
4164000,0.0324,0.013523,0.002678,0.000431,0.006699
4165000,0.0324,0.013523,0.002678,0.000431,0.007404
4166000,0.0324,0.013523,0.002678,0.000431,0.007169
4167000,0.0324,0.013523,0.002678,0.000431,0.006699
4168000,0.0324,0.013523,0.002678,0.000431,0.006934
4169000,0.0324,0.013523,0.002678,0.000431,0.006934
4170000,0.0324,0.013523,0.002678,0.000431,0.006817
4171000,0.0324,0.013523,0.002678,0.000431,0.006699
4172000,0.0324,0.013523,0.002678,0.000431,0.007169
4173000,0.0324,0.013523,0.002678,0.000431,0.007169
4174000,0.0324,0.013523,0.002678,0.000431,0.007052
4175000,0.0324,0.013523,0.002678,0.000431,0.006111
4176000,0.0324,0.013523,0.002678,0.000431,0.006111
4177000,0.0324,0.013523,0.002678,0.000431,0.005759
4178000,0.0324,0.013523,0.002678,0.000431,0.006347
4179000,0.0324,0.013523,0.002678,0.000431,0.006347
4180000,0.0324,0.013523,0.002678,0.000431,0.006229
4181000,0.0324,0.013523,0.002678,0.000431,0.005876
4182000,0.0324,0.013523,0.002678,0.000431,0.006111
4183000,0.0324,0.013523,0.002678,0.000431,0.006464
4184000,0.0324,0.013523,0.002678,0.000431,0.006347
4185000,0.0324,0.013523,0.002678,0.000431,0.006582
4186000,0.0324,0.013523,0.002678,0.000431,0.005994
4187000,0.0324,0.013523,0.002678,0.000431,0.007052
4188000,0.0324,0.013523,0.002678,0.000431,0.006347
4189000,0.0324,0.013523,0.002678,0.000431,0.006111
4190000,0.0324,0.013523,0.002678,0.000431,0.006464
4191000,0.0324,0.013523,0.002678,0.000431,0.006347
4192000,0.0324,0.013523,0.002678,0.000431,0.005876
4193000,0.0324,0.013523,0.002678,0.000431,0.005994
4194000,0.0324,0.013523,0.002678,0.000431,0.006464
4195000,0.0324,0.013523,0.002678,0.000431,0.006229
4196000,0.0324,0.013523,0.002678,0.000431,0.005289
4197000,0.0324,0.013523,0.002678,0.000431,0.006111
4198000,0.0324,0.013523,0.002678,0.000431,0.005994
4199000,0.0324,0.013523,0.002678,0.000431,0.006347
4200000,0.0324,0.013523,0.002678,0.000431,0.005994
4201000,0.0324,0.013523,0.002678,0.000431,0.006699
4202000,0.0324,0.013523,0.002678,0.000431,0.005994
4203000,0.0324,0.013523,0.002678,0.000431,0.005994
4204000,0.0324,0.013523,0.002678,0.000431,0.006464
4205000,0.0324,0.013523,0.002678,0.000431,0.005994
4206000,0.0324,0.013523,0.002678,0.000431,0.005406
4207000,0.0324,0.013523,0.002678,0.000431,0.006229
4208000,0.0324,0.013523,0.002678,0.000431,0.005994
4209000,0.0324,0.013523,0.002678,0.000431,0.006229
4210000,0.0324,0.013523,0.002678,0.000431,0.005876
4211000,0.0324,0.013523,0.002678,0.000431,0.006464
4212000,0.0324,0.013523,0.002678,0.000431,0.006111
4213000,0.0324,0.013523,0.002678,0.000431,0.006229
4214000,0.0324,0.013523,0.002678,0.000431,0.006229
4215000,0.0324,0.013523,0.002678,0.000431,0.006111
4216000,0.0324,0.013523,0.002678,0.000431,0.005994
4217000,0.0324,0.013523,0.002678,0.000431,0.005876
4218000,0.0324,0.013523,0.002678,0.000431,0.006229
4219000,0.0324,0.013523,0.002678,0.000431,0.006347
4220000,0.0324,0.013523,0.002678,0.000431,0.005994
4221000,0.0324,0.013523,0.002678,0.000431,0.006582
4222000,0.0324,0.013523,0.002678,0.000431,0.005994
4223000,0.0324,0.013523,0.002678,0.000431,0.005994
4224000,0.0324,0.013523,0.002678,0.000431,0.006347
4225000,0.0324,0.013523,0.002678,0.000431,0.006229
4226000,0.0324,0.013523,0.002678,0.000431,0.005759
4227000,0.0324,0.013523,0.002678,0.000431,0.005759
4228000,0.0324,0.013523,0.002678,0.000431,0.006229
4229000,0.0324,0.013523,0.002678,0.000431,0.005759
4230000,0.0324,0.013523,0.002678,0.000431,0.006464
4231000,0.0324,0.013523,0.002678,0.000431,0.006111
4232000,0.0324,0.013523,0.002678,0.000431,0.005876
4233000,0.0324,0.013523,0.002678,0.000431,0.006229
4234000,0.0324,0.013523,0.002678,0.000431,0.005759
4235000,0.0324,0.013523,0.002678,0.000431,0.006464
4236000,0.0324,0.013523,0.002678,0.000431,0.006229
4237000,0.0324,0.013523,0.002678,0.000431,0.006229
4238000,0.0324,0.013523,0.002678,0.000431,0.006111
4239000,0.0324,0.013523,0.002678,0.000431,0.006111
4240000,0.0324,0.013523,0.002678,0.000431,0.006347
4241000,0.0324,0.013523,0.002678,0.000431,0.006347
4242000,0.0324,0.013523,0.002678,0.000431,0.006229
4243000,0.0324,0.013523,0.002678,0.000431,0.006229
4244000,0.0324,0.013523,0.002678,0.000431,0.006817
4245000,0.0324,0.013523,0.002678,0.000431,0.006111
4246000,0.0324,0.013523,0.002678,0.000431,0.006582
4247000,0.0324,0.013523,0.002678,0.000431,0.006347
4248000,0.0324,0.013523,0.002678,0.000431,0.006582
4249000,0.0324,0.013523,0.002678,0.000431,0.005876
4250000,0.0324,0.013523,0.002678,0.000431,0.006229
4251000,0.0324,0.013523,0.002678,0.000431,0.006582
4252000,0.0324,0.013523,0.002678,0.000431,0.006347
4253000,0.0324,0.013523,0.002678,0.000431,0.005876
4254000,0.0324,0.013523,0.002678,0.000431,0.006464
4255000,0.0324,0.013523,0.002678,0.000431,0.006582
4256000,0.0324,0.013523,0.002678,0.000431,0.006229
4257000,0.0324,0.013523,0.002678,0.000431,0.006111
4258000,0.0324,0.013523,0.002678,0.000431,0.006347
4259000,0.0324,0.013523,0.002678,0.000431,0.006347
4260000,0.0324,0.013523,0.002678,0.000431,0.006347
4261000,0.0324,0.013523,0.002678,0.000431,0.005994
4262000,0.0324,0.013523,0.002678,0.000431,0.006229
4263000,0.0324,0.013523,0.002678,0.000431,0.005876
4264000,0.0324,0.013523,0.002678,0.000431,0.006582
4265000,0.0324,0.013523,0.002678,0.000431,0.006111
4266000,0.0324,0.013523,0.002678,0.000431,0.006229
4267000,0.0324,0.013523,0.002678,0.000431,0.006699
4268000,0.0324,0.013523,0.002678,0.000431,0.005876
4269000,0.0324,0.013523,0.002678,0.000431,0.006229
4270000,0.0324,0.013523,0.002678,0.000431,0.006229
4271000,0.0324,0.013523,0.002678,0.000431,0.006229
4272000,0.0324,0.013523,0.002678,0.000431,0.006582
4273000,0.0324,0.013523,0.002678,0.000431,0.006229
4274000,0.0324,0.013523,0.002678,0.000431,0.006347
4275000,0.0324,0.013523,0.002678,0.000431,0.006464
4276000,0.0324,0.013523,0.002678,0.000431,0.005759
4277000,0.0324,0.013523,0.002678,0.000431,0.006347
4278000,0.0324,0.013523,0.002678,0.000431,0.006229
4279000,0.0324,0.013523,0.002678,0.000431,0.006582
4280000,0.0324,0.013523,0.002678,0.000431,0.006464
4281000,0.0324,0.013523,0.002678,0.000431,0.006464
4282000,0.0324,0.013523,0.002678,0.000431,0.006111
4283000,0.0324,0.013523,0.002678,0.000431,0.005994
4284000,0.0324,0.013523,0.002678,0.000431,0.006582
4285000,0.0324,0.013523,0.002678,0.000431,0.006111
4286000,0.0324,0.013523,0.002678,0.000431,0.006229
4287000,0.0324,0.013523,0.002678,0.000431,0.005759
4288000,0.0324,0.013523,0.002678,0.000431,0.005876
4289000,0.0324,0.013523,0.002678,0.000431,0.005406
4290000,0.0324,0.013523,0.002678,0.000431,0.005524
4291000,0.0324,0.013523,0.002678,0.000431,0.005524
4292000,0.0324,0.013523,0.002678,0.000431,0.005641
4293000,0.0324,0.013523,0.002678,0.000431,0.005406
4294000,0.0324,0.013523,0.002678,0.000431,0.005524
4295000,0.0324,0.013523,0.002678,0.000431,0.005524
4296000,0.0324,0.013523,0.002678,0.000431,0.006111
4297000,0.0324,0.013523,0.002678,0.000431,0.005641
4298000,0.0324,0.013523,0.002678,0.000431,0.005289
4299000,0.0324,0.013523,0.002678,0.000431,0.005641
4300000,0.0324,0.013523,0.002678,0.000431,0.005171
4301000,0.0324,0.013523,0.002678,0.000431,0.005641
4302000,0.0324,0.013523,0.002678,0.000431,0.005524
4303000,0.0324,0.013523,0.002678,0.000431,0.005524
4304000,0.0324,0.013523,0.002678,0.000431,0.005994
4305000,0.0324,0.013523,0.002678,0.000431,0.005524
4306000,0.0324,0.013523,0.002678,0.000431,0.005641
4307000,0.0324,0.013523,0.002678,0.000431,0.005406
4308000,0.0324,0.013523,0.002678,0.000431,0.005759
4309000,0.0324,0.013523,0.002678,0.000431,0.005524
4310000,0.0324,0.013523,0.002678,0.000431,0.005876
4311000,0.0324,0.013523,0.002678,0.000431,0.005524
4312000,0.0324,0.013523,0.002678,0.000431,0.005759
4313000,0.0324,0.013523,0.002678,0.000431,0.005759
4314000,0.0324,0.013523,0.002678,0.000431,0.005876
4315000,0.0324,0.013523,0.002678,0.000431,0.005524
4316000,0.0324,0.013523,0.002678,0.000431,0.005406
4317000,0.0324,0.013523,0.002678,0.000431,0.004701
4318000,0.0324,0.013523,0.002678,0.000431,0.004936
4319000,0.0324,0.013523,0.002678,0.000431,0.004584
4320000,0.0324,0.013523,0.002678,0.000431,0.004466
4321000,0.0324,0.013523,0.002678,0.000431,0.004701
4322000,0.0324,0.013523,0.002678,0.000431,0.004701
4323000,0.0324,0.013523,0.002678,0.000431,0.005171
4324000,0.0324,0.013523,0.002678,0.000431,0.004701
4325000,0.0324,0.013523,0.002678,0.000431,0.004701
4326000,0.0324,0.013523,0.002678,0.000431,0.004819
4327000,0.0324,0.013523,0.002678,0.000431,0.004584
4328000,0.0324,0.013523,0.002678,0.000431,0.004349
4329000,0.0324,0.013523,0.002678,0.000431,0.004466
4330000,0.0324,0.013523,0.002678,0.000431,0.005171
4331000,0.0324,0.013523,0.002678,0.000431,0.005054
4332000,0.0324,0.013523,0.002678,0.000431,0.004936
4333000,0.0324,0.013523,0.002678,0.000431,0.004466
4334000,0.0324,0.013523,0.002678,0.000431,0.005054
4335000,0.0324,0.013523,0.002678,0.000431,0.005054
4336000,0.0324,0.013523,0.002678,0.000431,0.004701
4337000,0.0324,0.013523,0.002678,0.000431,0.004349
4338000,0.0324,0.013523,0.002678,0.000431,0.005054
4339000,0.0324,0.013523,0.002678,0.000431,0.004584
4340000,0.0324,0.013523,0.002678,0.000431,0.004936
4341000,0.0324,0.013523,0.002678,0.000431,0.004349
4342000,0.0324,0.013523,0.002678,0.000431,0.004819
4343000,0.0324,0.013523,0.002678,0.000431,0.005289
4344000,0.0324,0.013523,0.002678,0.000431,0.004936
4345000,0.0324,0.013523,0.002678,0.000431,0.004819
4346000,0.0324,0.013523,0.002678,0.000431,0.004701
4347000,0.0324,0.013523,0.002678,0.000431,0.004819
4348000,0.0324,0.013523,0.002678,0.000431,0.005289
4349000,0.0324,0.013523,0.002678,0.000431,0.005171
4350000,0.0324,0.013523,0.002678,0.000431,0.004819
4351000,0.0324,0.013523,0.002678,0.000431,0.004819
4352000,0.0324,0.013523,0.002678,0.000431,0.004584
4353000,0.0324,0.013523,0.002678,0.000431,0.004936
4354000,0.0324,0.013523,0.002678,0.000431,0.004819
4355000,0.0324,0.013523,0.002678,0.000431,0.005054
4356000,0.0324,0.013523,0.002678,0.000431,0.004819
4357000,0.0324,0.013523,0.002678,0.000431,0.004584
4358000,0.0324,0.013523,0.002678,0.000431,0.004936
4359000,0.0324,0.013523,0.002678,0.000431,0.005054
4360000,0.0324,0.013523,0.002678,0.000431,0.004701
4361000,0.0324,0.013523,0.002678,0.000431,0.004819
4362000,0.0324,0.013523,0.002678,0.000431,0.005641
4363000,0.0324,0.013523,0.002678,0.000431,0.004349
4364000,0.0324,0.013523,0.002678,0.000431,0.005054
4365000,0.0324,0.013523,0.002678,0.000431,0.004701
4366000,0.0324,0.013523,0.002678,0.000431,0.004819
4367000,0.0324,0.013523,0.002678,0.000431,0.004584
4368000,0.0324,0.013523,0.002678,0.000431,0.005054
4369000,0.0324,0.013523,0.002678,0.000431,0.004936
4370000,0.0324,0.013523,0.002678,0.000431,0.004936
4371000,0.0324,0.013523,0.002678,0.000431,0.004819
4372000,0.0324,0.013523,0.002678,0.000431,0.005171
4373000,0.0324,0.013523,0.002678,0.000431,0.004701
4374000,0.0324,0.013523,0.002678,0.000431,0.004936
4375000,0.0324,0.013523,0.002678,0.000431,0.004584
4376000,0.0324,0.013523,0.002678,0.000431,0.004936
4377000,0.0324,0.013523,0.002678,0.000431,0.004701
4378000,0.0324,0.013523,0.002678,0.000431,0.004936
4379000,0.0324,0.013523,0.002678,0.000431,0.004819
4380000,0.0324,0.013523,0.002678,0.000431,0.005289
4381000,0.0324,0.013523,0.002678,0.000431,0.004466
4382000,0.0324,0.013523,0.002678,0.000431,0.004936
4383000,0.0324,0.013523,0.002678,0.000431,0.004701
4384000,0.0324,0.013523,0.002678,0.000431,0.004819
4385000,0.0324,0.013523,0.002678,0.000431,0.005171
4386000,0.0324,0.013523,0.002678,0.000431,0.004701
4387000,0.0324,0.013523,0.002678,0.000431,0.005054
4388000,0.0324,0.013523,0.002678,0.000431,0.005054
4389000,0.0324,0.013523,0.002678,0.000431,0.004819
4390000,0.0324,0.013523,0.002678,0.000431,0.004936
4391000,0.0324,0.013523,0.002678,0.000431,0.005054
4392000,0.0324,0.013523,0.002678,0.000431,0.004701
4393000,0.0324,0.013523,0.002678,0.000431,0.005171
4394000,0.0324,0.013523,0.002678,0.000431,0.004584
4395000,0.0324,0.013523,0.002678,0.000431,0.004936
4396000,0.0324,0.013523,0.002678,0.000431,0.004936
4397000,0.0324,0.013523,0.002678,0.000431,0.005054
4398000,0.0324,0.013523,0.002678,0.000431,0.004701
4399000,0.0324,0.013523,0.002678,0.000431,0.004936
4400000,0.0324,0.013523,0.002678,0.000431,0.004819
4401000,0.0324,0.013523,0.002678,0.000431,0.005054
4402000,0.0324,0.013523,0.002678,0.000431,0.004584
4403000,0.0324,0.013523,0.002678,0.000431,0.004819
4404000,0.0324,0.013523,0.002678,0.000431,0.005171
4405000,0.0324,0.013523,0.002678,0.000431,0.004936
4406000,0.0324,0.013523,0.002678,0.000431,0.004819
4407000,0.0324,0.013523,0.002678,0.000431,0.004819
4408000,0.0324,0.013523,0.002678,0.000431,0.004466
4409000,0.0324,0.013523,0.002678,0.000431,0.005054
4410000,0.0324,0.013523,0.002678,0.000431,0.004936
4411000,0.0324,0.013523,0.002678,0.000431,0.005054
4412000,0.0324,0.013523,0.002678,0.000431,0.004819
4413000,0.0324,0.013523,0.002678,0.000431,0.004936
4414000,0.0324,0.013523,0.002678,0.000431,0.005171
4415000,0.0324,0.013523,0.002678,0.000431,0.004936
4416000,0.0324,0.013523,0.002678,0.000431,0.004584
4417000,0.0324,0.013523,0.002678,0.000431,0.005406
4418000,0.0324,0.013523,0.002678,0.000431,0.004936
4419000,0.0324,0.013523,0.002678,0.000431,0.004701
4420000,0.0324,0.013523,0.002678,0.000431,0.005054
4421000,0.0324,0.013523,0.002678,0.000431,0.004466
4422000,0.0324,0.013523,0.002678,0.000431,0.005054
4423000,0.0324,0.013523,0.002678,0.000431,0.004936
4424000,0.0324,0.013523,0.002678,0.000431,0.004466
4425000,0.0324,0.013523,0.002678,0.000431,0.005054
4426000,0.0324,0.013523,0.002678,0.000431,0.005171
4427000,0.0324,0.013523,0.002678,0.000431,0.004466
4428000,0.0324,0.013523,0.002678,0.000431,0.005054
4429000,0.0324,0.013523,0.002678,0.000431,0.004819
4430000,0.0324,0.013523,0.002678,0.000431,0.005171
4431000,0.0324,0.013523,0.002678,0.000431,0.004466
4432000,0.0324,0.013523,0.002678,0.000431,0.004701
4433000,0.0324,0.013523,0.002678,0.000431,0.005054
4434000,0.0324,0.013523,0.002678,0.000431,0.004936
4435000,0.0324,0.013523,0.002678,0.000431,0.004701
4436000,0.0324,0.013523,0.002678,0.000431,0.005054
4437000,0.0324,0.013523,0.002678,0.000431,0.005054
4438000,0.0324,0.013523,0.002678,0.000431,0.004113
4439000,0.0324,0.013523,0.002678,0.000431,0.004349
4440000,0.0324,0.013523,0.002678,0.000431,0.004231
4441000,0.0324,0.013523,0.002678,0.000431,0.004113
4442000,0.0324,0.013523,0.002678,0.000431,0.004466
4443000,0.0324,0.013523,0.002678,0.000431,0.003996
4444000,0.0324,0.013523,0.002678,0.000431,0.004349
4445000,0.0324,0.013523,0.002678,0.000431,0.004231
4446000,0.0324,0.013523,0.002678,0.000431,0.004231
4447000,0.0324,0.013523,0.002678,0.000431,0.004231
4448000,0.0324,0.013523,0.002678,0.000431,0.003761
4449000,0.0324,0.013523,0.002678,0.000431,0.004349
4450000,0.0324,0.013523,0.002678,0.000431,0.004113
4451000,0.0324,0.013523,0.002678,0.000431,0.004349
4452000,0.0324,0.013523,0.002678,0.000431,0.003878
4453000,0.0324,0.013523,0.002678,0.000431,0.004349
4454000,0.0324,0.013523,0.002678,0.000431,0.004584
4455000,0.0324,0.013523,0.002678,0.000431,0.003996
4456000,0.0324,0.013523,0.002678,0.000431,0.004231
4457000,0.0324,0.013523,0.002678,0.000431,0.004231
4458000,0.0324,0.013523,0.002678,0.000431,0.003878
4459000,0.0324,0.013523,0.002678,0.000431,0.004113
4460000,0.0324,0.013523,0.002678,0.000431,0.004349
4461000,0.0324,0.013523,0.002678,0.000431,0.004349
4462000,0.0324,0.013523,0.002678,0.000431,0.004113
4463000,0.0324,0.013523,0.002678,0.000431,0.004113
4464000,0.0324,0.013523,0.002678,0.000431,0.004349
4465000,0.0324,0.013523,0.002678,0.000431,0.003643
4466000,0.0324,0.013523,0.002678,0.000431,0.004466
4467000,0.0324,0.013523,0.002678,0.000431,0.004466
4468000,0.0324,0.013523,0.002678,0.000431,0.003996
4469000,0.0324,0.013523,0.002678,0.000431,0.003996
4470000,0.0324,0.013523,0.002678,0.000431,0.004349
4471000,0.0324,0.013523,0.002678,0.000431,0.004584
4472000,0.0324,0.013523,0.002678,0.000431,0.004113
4473000,0.0324,0.013523,0.002678,0.000431,0.004466
4474000,0.0324,0.013523,0.002678,0.000431,0.004231
4475000,0.0324,0.013523,0.002678,0.000431,0.004349
4476000,0.0324,0.013523,0.002678,0.000431,0.004349
4477000,0.0324,0.013523,0.002678,0.000431,0.003878
4478000,0.0324,0.013523,0.002678,0.000431,0.004584
4479000,0.0324,0.013523,0.002678,0.000431,0.004231
4480000,0.0324,0.013523,0.002678,0.000431,0.003996
4481000,0.0324,0.013523,0.002678,0.000431,0.003996
4482000,0.0324,0.013523,0.002678,0.000431,0.003996
4483000,0.0324,0.013523,0.002678,0.000431,0.004349
4484000,0.0324,0.013523,0.002678,0.000431,0.003761
4485000,0.0324,0.013523,0.002678,0.000431,0.003643
4486000,0.0324,0.013523,0.002678,0.000431,0.003291
4487000,0.0324,0.013523,0.002678,0.000431,0.003408
4488000,0.0324,0.013523,0.002678,0.000431,0.003526
4489000,0.0324,0.013523,0.002678,0.000431,0.003643
4490000,0.0324,0.013523,0.002678,0.000431,0.003291
4491000,0.0324,0.013523,0.002678,0.000431,0.003526
4492000,0.0324,0.013523,0.002678,0.000431,0.003761
4493000,0.0324,0.013523,0.002678,0.000431,0.003526
4494000,0.0324,0.013523,0.002678,0.000431,0.003408
4495000,0.0324,0.013523,0.002678,0.000431,0.003526
4496000,0.0324,0.013523,0.002678,0.000431,0.003761
4497000,0.0324,0.013523,0.002678,0.000431,0.003408
4498000,0.0324,0.013523,0.002678,0.000431,0.003526
4499000,0.0324,0.013523,0.002678,0.000431,0.003761
4500000,0.0324,0.013523,0.002678,0.000431,0.003526
4501000,0.0324,0.013523,0.002678,0.000431,0.003643
4502000,0.0324,0.013523,0.002678,0.000431,0.003526
4503000,0.0324,0.013523,0.002678,0.000431,0.003761
4504000,0.0324,0.013523,0.002678,0.000431,0.003408
4505000,0.0324,0.013523,0.002678,0.000431,0.003526
4506000,0.0324,0.013523,0.002678,0.000431,0.003643
4507000,0.0324,0.013523,0.002678,0.000431,0.003408
4508000,0.0324,0.013523,0.002678,0.000431,0.003291
4509000,0.0324,0.013523,0.002678,0.000431,0.003291
4510000,0.0324,0.013523,0.002678,0.000431,0.003643
4511000,0.0324,0.013523,0.002678,0.000431,0.003643
4512000,0.0324,0.013523,0.002678,0.000431,0.003761
4513000,0.0324,0.013523,0.002678,0.000431,0.003173
4514000,0.0324,0.013523,0.002678,0.000431,0.003526
4515000,0.0324,0.013523,0.002678,0.000431,0.003408
4516000,0.0324,0.013523,0.002678,0.000431,0.003526
4517000,0.0324,0.013523,0.002678,0.000431,0.003643
4518000,0.0324,0.013523,0.002678,0.000431,0.003643
4519000,0.0324,0.013523,0.002678,0.000431,0.003291
4520000,0.0324,0.013523,0.002678,0.000431,0.003761
4521000,0.0324,0.013523,0.002678,0.000431,0.003408
4522000,0.0324,0.013523,0.002678,0.000431,0.003643
4523000,0.0324,0.013523,0.002678,0.000431,0.003408
4524000,0.0324,0.013523,0.002678,0.000431,0.003408
4525000,0.0324,0.013523,0.002678,0.000431,0.003761
4526000,0.0324,0.013523,0.002678,0.000431,0.003291
4527000,0.0324,0.013523,0.002678,0.000431,0.003761
4528000,0.0324,0.013523,0.002678,0.000431,0.003643
4529000,0.0324,0.013523,0.002678,0.000431,0.003408
4530000,0.0324,0.013523,0.002678,0.000431,0.003761
4531000,0.0324,0.013523,0.002678,0.000431,0.003761
4532000,0.0324,0.013523,0.002678,0.000431,0.003526
4533000,0.0324,0.013523,0.002678,0.000431,0.003761
4534000,0.0324,0.013523,0.002678,0.000431,0.003408
4535000,0.0324,0.013523,0.002678,0.000431,0.003761
4536000,0.0324,0.013523,0.002678,0.000431,0.003643
4537000,0.0324,0.013523,0.002678,0.000431,0.003291
4538000,0.0324,0.013523,0.002678,0.000431,0.003408
4539000,0.0324,0.013523,0.002678,0.000431,0.003761
4540000,0.0324,0.013523,0.002678,0.000431,0.003173
4541000,0.0324,0.013523,0.002678,0.000431,0.003408
4542000,0.0324,0.013523,0.002678,0.000431,0.003526
4543000,0.0324,0.013523,0.002678,0.000431,0.003761
4544000,0.0324,0.013523,0.002678,0.000431,0.003526
4545000,0.0324,0.013523,0.002678,0.000431,0.003408
4546000,0.0324,0.013523,0.002678,0.000431,0.003643
4547000,0.0324,0.013523,0.002678,0.000431,0.003408
4548000,0.0324,0.013523,0.002678,0.000431,0.003291
4549000,0.0324,0.013523,0.002678,0.000431,0.003526
4550000,0.0324,0.013523,0.002678,0.000431,0.003408
4551000,0.0324,0.013523,0.002678,0.000431,0.003291
4552000,0.0324,0.013523,0.002678,0.000431,0.003408
4553000,0.0324,0.013523,0.002678,0.000431,0.003408
4554000,0.0324,0.013523,0.002678,0.000431,0.003878
4555000,0.0324,0.013523,0.002678,0.000431,0.003291
4556000,0.0324,0.013523,0.002678,0.000431,0.003526
4557000,0.0324,0.013523,0.002678,0.000431,0.003526
4558000,0.0324,0.013523,0.002678,0.000431,0.003291
4559000,0.0324,0.013523,0.002678,0.000431,0.003526
4560000,0.0324,0.013523,0.002678,0.000431,0.003526
4561000,0.0324,0.013523,0.002678,0.000431,0.003643
4562000,0.0324,0.013523,0.002678,0.000431,0.003643
4563000,0.0324,0.013523,0.002678,0.000431,0.003526
4564000,0.0324,0.013523,0.002678,0.000431,0.003526
4565000,0.0324,0.013523,0.002678,0.000431,0.003526
4566000,0.0324,0.013523,0.002678,0.000431,0.003643
4567000,0.0324,0.013523,0.002678,0.000431,0.003643
4568000,0.0324,0.013523,0.002678,0.000431,0.003643
4569000,0.0324,0.013523,0.002678,0.000431,0.003526
4570000,0.0324,0.013523,0.002678,0.000431,0.003526
4571000,0.0324,0.013523,0.002678,0.000431,0.003643
4572000,0.0324,0.013523,0.002678,0.000431,0.003643
4573000,0.0324,0.013523,0.002678,0.000431,0.003643
4574000,0.0324,0.013523,0.002678,0.000431,0.003291
4575000,0.0324,0.013523,0.002678,0.000431,0.003526
4576000,0.0324,0.013523,0.002678,0.000431,0.003408
4577000,0.0324,0.013523,0.002678,0.000431,0.003408
4578000,0.0324,0.013523,0.002678,0.000431,0.003761
4579000,0.0324,0.013523,0.002678,0.000431,0.003291
4580000,0.0324,0.013523,0.002678,0.000431,0.003878
4581000,0.0324,0.013523,0.002678,0.000431,0.003526
4582000,0.0324,0.013523,0.002678,0.000431,0.003526
4583000,0.0324,0.013523,0.002678,0.000431,0.003643
4584000,0.0324,0.013523,0.002678,0.000431,0.003761
4585000,0.0324,0.013523,0.002678,0.000431,0.003761
4586000,0.0324,0.013523,0.002678,0.000431,0.003408
4587000,0.0324,0.013523,0.002678,0.000431,0.003643
4588000,0.0324,0.013523,0.002678,0.000431,0.003291
4589000,0.0324,0.013523,0.002678,0.000431,0.003291
4590000,0.0324,0.013523,0.002678,0.000431,0.003761
4591000,0.0324,0.013523,0.002678,0.000431,0.003878
4592000,0.0324,0.013523,0.002678,0.000431,0.003291
4593000,0.0324,0.013523,0.002678,0.000431,0.003643
4594000,0.0324,0.013523,0.002678,0.000431,0.003291
4595000,0.0324,0.013523,0.002678,0.000431,0.003526
4596000,0.0324,0.013523,0.002678,0.000431,0.003643
4597000,0.0324,0.013523,0.002678,0.000431,0.003408
4598000,0.0324,0.013523,0.002678,0.000431,0.003408
4599000,0.0324,0.013523,0.002678,0.000431,0.003761
4600000,0.0324,0.013523,0.002678,0.000431,0.003643
4601000,0.0324,0.013523,0.002678,0.000431,0.003056
4602000,0.0324,0.013523,0.002678,0.000431,0.003526
4603000,0.0324,0.013523,0.002678,0.000431,0.003526
4604000,0.0324,0.013523,0.002678,0.000431,0.003878
4605000,0.0324,0.013523,0.002678,0.000431,0.003878
4606000,0.0324,0.013523,0.002678,0.000431,0.003173
4607000,0.0324,0.013523,0.002678,0.000431,0.003761
4608000,0.0324,0.013523,0.002678,0.000431,0.003408
4609000,0.0324,0.013523,0.002678,0.000431,0.003408
4610000,0.0324,0.013523,0.002678,0.000431,0.003291
4611000,0.0324,0.013523,0.002678,0.000431,0.003408
4612000,0.0324,0.013523,0.002678,0.000431,0.003761
4613000,0.0324,0.013523,0.002678,0.000431,0.003643
4614000,0.0324,0.013523,0.002678,0.000431,0.003526
4615000,0.0324,0.013523,0.002678,0.000431,0.003643
4616000,0.0324,0.013523,0.002678,0.000431,0.003408
4617000,0.0324,0.013523,0.002678,0.000431,0.003408
4618000,0.0324,0.013523,0.002678,0.000431,0.003643
4619000,0.0324,0.013523,0.002678,0.000431,0.003643
4620000,0.0324,0.013523,0.002678,0.000431,0.003408
4621000,0.0324,0.013523,0.002678,0.000431,0.003526
4622000,0.0324,0.013523,0.002678,0.000431,0.003526
4623000,0.0324,0.013523,0.002678,0.000431,0.003643
4624000,0.0324,0.013523,0.002678,0.000431,0.003526
4625000,0.0324,0.013523,0.002678,0.000431,0.003173
4626000,0.0324,0.013523,0.002678,0.000431,0.003761
4627000,0.0324,0.013523,0.002678,0.000431,0.003408
4628000,0.0324,0.013523,0.002678,0.000431,0.003643
4629000,0.0324,0.013523,0.002678,0.000431,0.003526
4630000,0.0324,0.013523,0.002678,0.000431,0.003291
4631000,0.0324,0.013523,0.002678,0.000431,0.003408
4632000,0.0324,0.013523,0.002678,0.000431,0.003408
4633000,0.0324,0.013523,0.002678,0.000431,0.003643
4634000,0.0324,0.013523,0.002678,0.000431,0.003761
4635000,0.0324,0.013523,0.002678,0.000431,0.003526
4636000,0.0324,0.013523,0.002678,0.000431,0.003878
4637000,0.0324,0.013523,0.002678,0.000431,0.003291
4638000,0.0324,0.013523,0.002678,0.000431,0.003526
4639000,0.0324,0.013523,0.002678,0.000431,0.003761
4640000,0.0324,0.013523,0.002678,0.000431,0.003643
4641000,0.0324,0.013523,0.002678,0.000431,0.003643
4642000,0.0324,0.013523,0.002678,0.000431,0.003526
4643000,0.0324,0.013523,0.002678,0.000431,0.003761
4644000,0.0324,0.013523,0.002678,0.000431,0.003996
4645000,0.0324,0.013523,0.002678,0.000431,0.003643
4646000,0.0324,0.013523,0.002678,0.000431,0.003526
4647000,0.0324,0.013523,0.002678,0.000431,0.003643
4648000,0.0324,0.013523,0.002678,0.000431,0.003526
4649000,0.0324,0.013523,0.002678,0.000431,0.003878
4650000,0.0324,0.013523,0.002678,0.000431,0.003291
4651000,0.0324,0.013523,0.002678,0.000431,0.003526
4652000,0.0324,0.013523,0.002678,0.000431,0.003643
4653000,0.0324,0.013523,0.002678,0.000431,0.003526
4654000,0.0324,0.013523,0.002678,0.000431,0.003526
4655000,0.0324,0.013523,0.002678,0.000431,0.003761
4656000,0.0324,0.013523,0.002678,0.000431,0.003408
4657000,0.0324,0.013523,0.002678,0.000431,0.003878
4658000,0.0324,0.013523,0.002678,0.000431,0.003291
4659000,0.0324,0.013523,0.002678,0.000431,0.003526
4660000,0.0324,0.013523,0.002678,0.000431,0.003526
4661000,0.0324,0.013523,0.002678,0.000431,0.003291
4662000,0.0324,0.013523,0.002678,0.000431,0.003761
4663000,0.0324,0.013523,0.002678,0.000431,0.003643
4664000,0.0324,0.013523,0.002678,0.000431,0.003291
4665000,0.0324,0.013523,0.002678,0.000431,0.003408
4666000,0.0324,0.013523,0.002678,0.000431,0.003408
4667000,0.0324,0.013523,0.002678,0.000431,0.003526
4668000,0.0324,0.013523,0.002678,0.000431,0.003526
4669000,0.0324,0.013523,0.002678,0.000431,0.003526
4670000,0.0324,0.013523,0.002678,0.000431,0.003408
4671000,0.0324,0.013523,0.002678,0.000431,0.003526
4672000,0.0324,0.013523,0.002678,0.000431,0.003408
4673000,0.0324,0.013523,0.002678,0.000431,0.003761
4674000,0.0324,0.013523,0.002678,0.000431,0.003408
4675000,0.0324,0.013523,0.002678,0.000431,0.003643
4676000,0.0324,0.013523,0.002678,0.000431,0.003761
4677000,0.0324,0.013523,0.002678,0.000431,0.003643
4678000,0.0324,0.013523,0.002678,0.000431,0.003408
4679000,0.0324,0.013523,0.002678,0.000431,0.003761
4680000,0.0324,0.013523,0.002678,0.000431,0.003526
4681000,0.0324,0.013523,0.002678,0.000431,0.003643
4682000,0.0324,0.013523,0.002678,0.000431,0.003173
4683000,0.0324,0.013523,0.002678,0.000431,0.003996
4684000,0.0324,0.013523,0.002678,0.000431,0.003056
4685000,0.0324,0.013523,0.002678,0.000431,0.003526
4686000,0.0324,0.013523,0.002678,0.000431,0.003408
4687000,0.0324,0.013523,0.002678,0.000431,0.003526
4688000,0.0324,0.013523,0.002678,0.000431,0.002468
4689000,0.0324,0.013523,0.002678,0.000431,0.002233
4690000,0.0324,0.013523,0.002678,0.000431,0.002116
4691000,0.0324,0.013523,0.002678,0.000431,0.002351
4692000,0.0324,0.013523,0.002678,0.000431,0.002233
4693000,0.0324,0.013523,0.002678,0.000431,0.002233
4694000,0.0324,0.013523,0.002678,0.000431,0.002233
4695000,0.0324,0.013523,0.002678,0.000431,0.002233
4696000,0.0324,0.013523,0.002678,0.000431,0.001880
4697000,0.0324,0.013523,0.002678,0.000431,0.002468
4698000,0.0324,0.013523,0.002678,0.000431,0.001998
4699000,0.0324,0.013523,0.002678,0.000431,0.002351
4700000,0.0324,0.013523,0.002678,0.000431,0.001998
4701000,0.0324,0.013523,0.002678,0.000431,0.001998
4702000,0.0324,0.013523,0.002678,0.000431,0.002233
4703000,0.0324,0.013523,0.002678,0.000431,0.002351
4704000,0.0324,0.013523,0.002678,0.000431,0.002116
4705000,0.0324,0.013523,0.002678,0.000431,0.001998
4706000,0.0324,0.013523,0.002678,0.000431,0.001998
4707000,0.0324,0.013523,0.002678,0.000431,0.002233
4708000,0.0324,0.013523,0.002678,0.000431,0.001880
4709000,0.0324,0.013523,0.002678,0.000431,0.002351
4710000,0.0324,0.013523,0.002678,0.000431,0.002116
4711000,0.0324,0.013523,0.002678,0.000431,0.002233
4712000,0.0324,0.013523,0.002678,0.000431,0.002116
4713000,0.0324,0.013523,0.002678,0.000431,0.001998
4714000,0.0324,0.013523,0.002678,0.000431,0.001998
4715000,0.0324,0.013523,0.002678,0.000431,0.001998
4716000,0.0324,0.013523,0.002678,0.000431,0.001998
4717000,0.0324,0.013523,0.002678,0.000431,0.002116
4718000,0.0324,0.013523,0.002678,0.000431,0.002116
4719000,0.0324,0.013523,0.002678,0.000431,0.002233
4720000,0.0324,0.013523,0.002678,0.000431,0.001880
4721000,0.0324,0.013523,0.002678,0.000431,0.002351
4722000,0.0324,0.013523,0.002678,0.000431,0.002116
4723000,0.0324,0.013523,0.002678,0.000431,0.001880
4724000,0.0324,0.013523,0.002678,0.000431,0.001880
4725000,0.0324,0.013523,0.002678,0.000431,0.002468
4726000,0.0324,0.013523,0.002678,0.000431,0.002116
4727000,0.0324,0.013523,0.002678,0.000431,0.002116
4728000,0.0324,0.013523,0.002678,0.000431,0.002468
4729000,0.0324,0.013523,0.002678,0.000431,0.001763
4730000,0.0324,0.013523,0.002678,0.000431,0.002351
4731000,0.0324,0.013523,0.002678,0.000431,0.002116
4732000,0.0324,0.013523,0.002678,0.000431,0.001880
4733000,0.0324,0.013523,0.002678,0.000431,0.002468
4734000,0.0324,0.013523,0.002678,0.000431,0.001880
4735000,0.0324,0.013523,0.002678,0.000431,0.002233
4736000,0.0324,0.013523,0.002678,0.000431,0.001998
4737000,0.0324,0.013523,0.002678,0.000431,0.002116
4738000,0.0324,0.013523,0.002678,0.000431,0.002233
4739000,0.0324,0.013523,0.002678,0.000431,0.002351
4740000,0.0324,0.013523,0.002678,0.000431,0.001880
4741000,0.0324,0.013523,0.002678,0.000431,0.002116
4742000,0.0324,0.013523,0.002678,0.000431,0.001998
4743000,0.0324,0.013523,0.002678,0.000431,0.002233
4744000,0.0324,0.013523,0.002678,0.000431,0.002116
4745000,0.0324,0.013523,0.002678,0.000431,0.002233
4746000,0.0324,0.013523,0.002678,0.000431,0.002233
4747000,0.0324,0.013523,0.002678,0.000431,0.001763
4748000,0.0324,0.013523,0.002678,0.000431,0.001528
4749000,0.0324,0.013523,0.002678,0.000431,0.001293
4750000,0.0324,0.013523,0.002678,0.000431,0.001528
4751000,0.0324,0.013523,0.002678,0.000431,0.001293
4752000,0.0324,0.013523,0.002678,0.000431,0.001410
4753000,0.0324,0.013523,0.002678,0.000431,0.001528
4754000,0.0324,0.013523,0.002678,0.000431,0.001293
4755000,0.0324,0.013523,0.002678,0.000431,0.001410
4756000,0.0324,0.013523,0.002678,0.000431,0.001410
4757000,0.0324,0.013523,0.002678,0.000431,0.001410
4758000,0.0324,0.013523,0.002678,0.000431,0.001410
4759000,0.0324,0.013523,0.002678,0.000431,0.001410
4760000,0.0324,0.013523,0.002678,0.000431,0.001410
4761000,0.0324,0.013523,0.002678,0.000431,0.001645
4762000,0.0324,0.013523,0.002678,0.000431,0.001293
4763000,0.0324,0.013523,0.002678,0.000431,0.001293
4764000,0.0324,0.013523,0.002678,0.000431,0.001645
4765000,0.0324,0.013523,0.002678,0.000431,0.001410
4766000,0.0324,0.013523,0.002678,0.000431,0.001293
4767000,0.0324,0.013523,0.002678,0.000431,0.001528
4768000,0.0324,0.013523,0.002678,0.000431,0.001410
4769000,0.0324,0.013523,0.002678,0.000431,0.001293
4770000,0.0324,0.013523,0.002678,0.000431,0.001528
4771000,0.0324,0.013523,0.002678,0.000431,0.001528
4772000,0.0324,0.013523,0.002678,0.000431,0.001645
4773000,0.0324,0.013523,0.002678,0.000431,0.001293
4774000,0.0324,0.013523,0.002678,0.000431,0.001410
4775000,0.0324,0.013523,0.002678,0.000431,0.001293
4776000,0.0324,0.013523,0.002678,0.000431,0.001645
4777000,0.0324,0.013523,0.002678,0.000431,0.001293
4778000,0.0324,0.013523,0.002678,0.000431,0.001410
4779000,0.0324,0.013523,0.002678,0.000431,0.001410
4780000,0.0324,0.013523,0.002678,0.000431,0.001410
4781000,0.0324,0.013523,0.002678,0.000431,0.001293
4782000,0.0324,0.013523,0.002678,0.000431,0.001410
4783000,0.0324,0.013523,0.002678,0.000431,0.001528
4784000,0.0324,0.013523,0.002678,0.000431,0.001410
4785000,0.0324,0.013523,0.002678,0.000431,0.001410
4786000,0.0324,0.013523,0.002678,0.000431,0.001528
4787000,0.0324,0.013523,0.002678,0.000431,0.001763
4788000,0.0324,0.013523,0.002678,0.000431,0.001410
4789000,0.0324,0.013523,0.002678,0.000431,0.001175
4790000,0.0324,0.013523,0.002678,0.000431,0.001528
4791000,0.0324,0.013523,0.002678,0.000431,0.001410
4792000,0.0324,0.013523,0.002678,0.000431,0.001410
4793000,0.0324,0.013523,0.002678,0.000431,0.001410
4794000,0.0324,0.013523,0.002678,0.000431,0.001293
4795000,0.0324,0.013523,0.002678,0.000431,0.001410
4796000,0.0324,0.013523,0.002678,0.000431,0.001528
4797000,0.0324,0.013523,0.002678,0.000431,0.001410
4798000,0.0324,0.013523,0.002678,0.000431,0.001293
4799000,0.0324,0.013523,0.002678,0.000431,0.001528
4800000,0.0324,0.013523,0.002678,0.000431,0.001293
4801000,0.0324,0.013523,0.002678,0.000431,0.001528
4802000,0.0324,0.013523,0.002678,0.000431,0.001645
4803000,0.0324,0.013523,0.002678,0.000431,0.001175
4804000,0.0324,0.013523,0.002678,0.000431,0.001645
4805000,0.0324,0.013523,0.002678,0.000431,0.001293
4806000,0.0324,0.013523,0.002678,0.000431,0.001645
4807000,0.0324,0.013523,0.002678,0.000431,0.001175
4808000,0.0324,0.013523,0.002678,0.000431,0.001410
4809000,0.0324,0.013523,0.002678,0.000431,0.001528
4810000,0.0324,0.013523,0.002678,0.000431,0.001293
4811000,0.0324,0.013523,0.002678,0.000431,0.001410
4812000,0.0324,0.013523,0.002678,0.000431,0.001410
4813000,0.0324,0.013523,0.002678,0.000431,0.001410
4814000,0.0324,0.013523,0.002678,0.000431,0.001410
4815000,0.0324,0.013523,0.002678,0.000431,0.001293
4816000,0.0324,0.013523,0.002678,0.000431,0.001528
4817000,0.0324,0.013523,0.002678,0.000431,0.001293
4818000,0.0324,0.013523,0.002678,0.000431,0.001528
4819000,0.0324,0.013523,0.002678,0.000431,0.001528
4820000,0.0324,0.013523,0.002678,0.000431,0.001410
4821000,0.0324,0.013523,0.002678,0.000431,0.001528
4822000,0.0324,0.013523,0.002678,0.000431,0.001410
4823000,0.0324,0.013523,0.002678,0.000431,0.001293
4824000,0.0324,0.013523,0.002678,0.000431,0.001293
4825000,0.0324,0.013523,0.002678,0.000431,0.001528
4826000,0.0324,0.013523,0.002678,0.000431,0.001410
4827000,0.0324,0.013523,0.002678,0.000431,0.001528
4828000,0.0324,0.013523,0.002678,0.000431,0.001528
4829000,0.0324,0.013523,0.002678,0.000431,0.001528
4830000,0.0324,0.013523,0.002678,0.000431,0.001293
4831000,0.0324,0.013523,0.002678,0.000431,0.001410
4832000,0.0324,0.013523,0.002678,0.000431,0.001528
4833000,0.0324,0.013523,0.002678,0.000431,0.001528
4834000,0.0324,0.013523,0.002678,0.000431,0.001058
4835000,0.0324,0.013523,0.002678,0.000431,0.001528
4836000,0.0324,0.013523,0.002678,0.000431,0.001645
4837000,0.0324,0.013523,0.002678,0.000431,0.001410
4838000,0.0324,0.013523,0.002678,0.000431,0.001528
4839000,0.0324,0.013523,0.002678,0.000431,0.001410
4840000,0.0324,0.013523,0.002678,0.000431,0.001410
4841000,0.0324,0.013523,0.002678,0.000431,0.001528
4842000,0.0324,0.013523,0.002678,0.000431,0.001293
4843000,0.0324,0.013523,0.002678,0.000431,0.001293
4844000,0.0324,0.013523,0.002678,0.000431,0.001528
4845000,0.0324,0.013523,0.002678,0.000431,0.001293
4846000,0.0324,0.013523,0.002678,0.000431,0.001293
4847000,0.0324,0.013523,0.002678,0.000431,0.001410
4848000,0.0324,0.013523,0.002678,0.000431,0.001528
4849000,0.0324,0.013523,0.002678,0.000431,0.001528
4850000,0.0324,0.013523,0.002678,0.000431,0.001410
4851000,0.0324,0.013523,0.002678,0.000431,0.001410
4852000,0.0324,0.013523,0.002678,0.000431,0.001293
4853000,0.0324,0.013523,0.002678,0.000431,0.001645
4854000,0.0324,0.013523,0.002678,0.000431,0.001293
4855000,0.0324,0.013523,0.002678,0.000431,0.001410
4856000,0.0324,0.013523,0.002678,0.000431,0.001410
4857000,0.0324,0.013523,0.002678,0.000431,0.001645
4858000,0.0324,0.013523,0.002678,0.000431,0.001175
4859000,0.0324,0.013523,0.002678,0.000431,0.001410
4860000,0.0324,0.013523,0.002678,0.000431,0.001528
4861000,0.0324,0.013523,0.002678,0.000431,0.001293
4862000,0.0324,0.013523,0.002678,0.000431,0.001293
4863000,0.0324,0.013523,0.002678,0.000431,0.001645
4864000,0.0324,0.013523,0.002678,0.000431,0.001528
4865000,0.0324,0.013523,0.002678,0.000431,0.001410
4866000,0.0324,0.013523,0.002678,0.000431,0.001528
4867000,0.0324,0.013523,0.002678,0.000431,0.001410
4868000,0.0324,0.013523,0.002678,0.000431,0.001293
4869000,0.0324,0.013523,0.002678,0.000431,0.001293
4870000,0.0324,0.013523,0.002678,0.000431,0.001410
4871000,0.0324,0.013523,0.002678,0.000431,0.001293
4872000,0.0324,0.013523,0.002678,0.000431,0.001410
4873000,0.0324,0.013523,0.002678,0.000431,0.001528
4874000,0.0324,0.013523,0.002678,0.000431,0.001528
4875000,0.0324,0.013523,0.002678,0.000431,0.001410
4876000,0.0324,0.013523,0.002678,0.000431,0.001410
4877000,0.0324,0.013523,0.002678,0.000431,0.001528
4878000,0.0324,0.013523,0.002678,0.000431,0.001528
4879000,0.0324,0.013523,0.002678,0.000431,0.001293
4880000,0.0324,0.013523,0.002678,0.000431,0.001528
4881000,0.0324,0.013523,0.002678,0.000431,0.001410
4882000,0.0324,0.013523,0.002678,0.000431,0.001293
4883000,0.0324,0.013523,0.002678,0.000431,0.001410
4884000,0.0324,0.013523,0.002678,0.000431,0.001528
4885000,0.0324,0.013523,0.002678,0.000431,0.000823
4886000,0.0324,0.013523,0.002678,0.000431,0.000705
4887000,0.0324,0.013523,0.002678,0.000431,0.000823
4888000,0.0324,0.013523,0.002678,0.000431,0.000705
4889000,0.0324,0.013523,0.002678,0.000431,0.000823
4890000,0.0324,0.013523,0.002678,0.000431,0.000705
4891000,0.0324,0.013523,0.002678,0.000431,0.000705
4892000,0.0324,0.013523,0.002678,0.000431,0.000705
4893000,0.0324,0.013523,0.002678,0.000431,0.000705
4894000,0.0324,0.013523,0.002678,0.000431,0.000705
4895000,0.0324,0.013523,0.002678,0.000431,0.000823
4896000,0.0324,0.013523,0.002678,0.000431,0.000705
4897000,0.0324,0.013523,0.002678,0.000431,0.000588
4898000,0.0324,0.013523,0.002678,0.000431,0.000823
4899000,0.0324,0.013523,0.002678,0.000431,0.000823
4900000,0.0324,0.013523,0.002678,0.000431,0.000588
4901000,0.0324,0.013523,0.002678,0.000431,0.000823
4902000,0.0324,0.013523,0.002678,0.000431,0.000705
4903000,0.0324,0.013523,0.002678,0.000431,0.000823
4904000,0.0324,0.013523,0.002678,0.000431,0.000588
4905000,0.0324,0.013523,0.002678,0.000431,0.000705
4906000,0.0324,0.013523,0.002678,0.000431,0.000705
4907000,0.0324,0.013523,0.002678,0.000431,0.000705
4908000,0.0324,0.013523,0.002678,0.000431,0.000705
4909000,0.0324,0.013523,0.002678,0.000431,0.000588
4910000,0.0324,0.013523,0.002678,0.000431,0.000705
4911000,0.0324,0.013523,0.002678,0.000431,0.000705
4912000,0.0324,0.013523,0.002678,0.000431,0.000705
4913000,0.0324,0.013523,0.002678,0.000431,0.000705
4914000,0.0324,0.013523,0.002678,0.000431,0.000705
4915000,0.0324,0.013523,0.002678,0.000431,0.000823
4916000,0.0324,0.013523,0.002678,0.000431,0.000588
4917000,0.0324,0.013523,0.002678,0.000431,0.000705
4918000,0.0324,0.013523,0.002678,0.000431,0.000588
4919000,0.0324,0.013523,0.002678,0.000431,0.000705
4920000,0.0324,0.013523,0.002678,0.000431,0.000705
4921000,0.0324,0.013523,0.002678,0.000431,0.000705
4922000,0.0324,0.013523,0.002678,0.000431,0.000705
4923000,0.0324,0.013523,0.002678,0.000431,0.000705
4924000,0.0324,0.013523,0.002678,0.000431,0.000705
4925000,0.0324,0.013523,0.002678,0.000431,0.000705
4926000,0.0324,0.013523,0.002678,0.000431,0.000705
4927000,0.0324,0.013523,0.002678,0.000431,0.000705
4928000,0.0324,0.013523,0.002678,0.000431,0.000705
4929000,0.0324,0.013523,0.002678,0.000431,0.000705
4930000,0.0324,0.013523,0.002678,0.000431,0.000705
4931000,0.0324,0.013523,0.002678,0.000431,0.000705
4932000,0.0324,0.013523,0.002678,0.000431,0.000705
4933000,0.0324,0.013523,0.002678,0.000431,0.000705
4934000,0.0324,0.013523,0.002678,0.000431,0.000588
4935000,0.0324,0.013523,0.002678,0.000431,0.000705
4936000,0.0324,0.013523,0.002678,0.000431,0.000823
4937000,0.0324,0.013523,0.002678,0.000431,0.000588
4938000,0.0324,0.013523,0.002678,0.000431,0.000823
4939000,0.0324,0.013523,0.002678,0.000431,0.000705
4940000,0.0324,0.013523,0.002678,0.000431,0.000705
4941000,0.0324,0.013523,0.002678,0.000431,0.000588
4942000,0.0324,0.013523,0.002678,0.000431,0.000588
4943000,0.0324,0.013523,0.002678,0.000431,0.000823
4944000,0.0324,0.013523,0.002678,0.000431,0.000823
4945000,0.0324,0.013523,0.002678,0.000431,0.000588
4946000,0.0324,0.013523,0.002678,0.000431,0.000705
4947000,0.0324,0.013523,0.002678,0.000431,0.000823
4948000,0.0324,0.013523,0.002678,0.000431,0.000705
4949000,0.0324,0.013523,0.002678,0.000431,0.000705
4950000,0.0324,0.013523,0.002678,0.000431,0.000705
4951000,0.0324,0.013523,0.002678,0.000431,0.000823
4952000,0.0324,0.013523,0.002678,0.000431,0.000705
4953000,0.0324,0.013523,0.002678,0.000431,0.000705
4954000,0.0324,0.013523,0.002678,0.000431,0.000705
4955000,0.0324,0.013523,0.002678,0.000431,0.000588
4956000,0.0324,0.013523,0.002678,0.000431,0.000823
4957000,0.0324,0.013523,0.002678,0.000431,0.000823
4958000,0.0324,0.013523,0.002678,0.000431,0.000705
4959000,0.0324,0.013523,0.002678,0.000431,0.000705
4960000,0.0324,0.013523,0.002678,0.000431,0.000705
4961000,0.0324,0.013523,0.002678,0.000431,0.000823
4962000,0.0324,0.013523,0.002678,0.000431,0.000588
4963000,0.0324,0.013523,0.002678,0.000431,0.000823
4964000,0.0324,0.013523,0.002678,0.000431,0.000588
4965000,0.0324,0.013523,0.002678,0.000431,0.000705
4966000,0.0324,0.013523,0.002678,0.000431,0.000705
4967000,0.0324,0.013523,0.002678,0.000431,0.000705
4968000,0.0324,0.013523,0.002678,0.000431,0.000705
4969000,0.0324,0.013523,0.002678,0.000431,0.000705
4970000,0.0324,0.013523,0.002678,0.000431,0.000705
4971000,0.0324,0.013523,0.002678,0.000431,0.000823
4972000,0.0324,0.013523,0.002678,0.000431,0.000823
4973000,0.0324,0.013523,0.002678,0.000431,0.000705
4974000,0.0324,0.013523,0.002678,0.000431,0.000705
4975000,0.0324,0.013523,0.002678,0.000431,0.000823
4976000,0.0324,0.013523,0.002678,0.000431,0.000588
4977000,0.0324,0.013523,0.002678,0.000431,0.000705
4978000,0.0324,0.013523,0.002678,0.000431,0.000823
4979000,0.0324,0.013523,0.002678,0.000431,0.000823
4980000,0.0324,0.013523,0.002678,0.000431,0.000705
4981000,0.0324,0.013523,0.002678,0.000431,0.000705
4982000,0.0324,0.013523,0.002678,0.000431,0.000705
4983000,0.0324,0.013523,0.002678,0.000431,0.000823
4984000,0.0324,0.013523,0.002678,0.000431,0.000588
4985000,0.0324,0.013523,0.002678,0.000431,0.000705
4986000,0.0324,0.013523,0.002678,0.000431,0.000823
4987000,0.0324,0.013523,0.002678,0.000431,0.000588
4988000,0.0324,0.013523,0.002678,0.000431,0.000823
4989000,0.0324,0.013523,0.002678,0.000431,0.000823
4990000,0.0324,0.013523,0.002678,0.000431,0.000705
4991000,0.0324,0.013523,0.002678,0.000431,0.000705
4992000,0.0324,0.013523,0.002678,0.000431,0.000705
4993000,0.0324,0.013523,0.002678,0.000431,0.000705
4994000,0.0324,0.013523,0.002678,0.000431,0.000705
4995000,0.0324,0.013523,0.002678,0.000431,0.000823
4996000,0.0324,0.013523,0.002678,0.000431,0.000823
4997000,0.0324,0.013523,0.002678,0.000431,0.000705
4998000,0.0324,0.013523,0.002678,0.000431,0.000705
4999000,0.0324,0.013523,0.002678,0.000431,0.000940
