Cycle,Area(mm^2),PeakDynamic(W),SubthresholdLeakage(W),GateLeakage(W),RunTimeDynamic(W)
43000000,0.0324,0.013523,0.002678,0.000431,0.000353
43001000,0.0324,0.013523,0.002678,0.000431,0.000118
43002000,0.0324,0.013523,0.002678,0.000431,0.000470
43003000,0.0324,0.013523,0.002678,0.000431,0.000353
43004000,0.0324,0.013523,0.002678,0.000431,0.000235
43005000,0.0324,0.013523,0.002678,0.000431,0.000353
43006000,0.0324,0.013523,0.002678,0.000431,0.000470
43007000,0.0324,0.013523,0.002678,0.000431,0.000235
43008000,0.0324,0.013523,0.002678,0.000431,0.000235
43009000,0.0324,0.013523,0.002678,0.000431,0.000470
43010000,0.0324,0.013523,0.002678,0.000431,0.000353
43011000,0.0324,0.013523,0.002678,0.000431,0.000235
43012000,0.0324,0.013523,0.002678,0.000431,0.000353
43013000,0.0324,0.013523,0.002678,0.000431,0.000470
43014000,0.0324,0.013523,0.002678,0.000431,0.000235
43015000,0.0324,0.013523,0.002678,0.000431,0.000235
43016000,0.0324,0.013523,0.002678,0.000431,0.000470
43017000,0.0324,0.013523,0.002678,0.000431,0.000353
43018000,0.0324,0.013523,0.002678,0.000431,0.000235
43019000,0.0324,0.013523,0.002678,0.000431,0.000353
43020000,0.0324,0.013523,0.002678,0.000431,0.000470
43021000,0.0324,0.013523,0.002678,0.000431,0.000235
43022000,0.0324,0.013523,0.002678,0.000431,0.000235
43023000,0.0324,0.013523,0.002678,0.000431,0.000470
43024000,0.0324,0.013523,0.002678,0.000431,0.000353
43025000,0.0324,0.013523,0.002678,0.000431,0.000235
43026000,0.0324,0.013523,0.002678,0.000431,0.000353
43027000,0.0324,0.013523,0.002678,0.000431,0.000470
43028000,0.0324,0.013523,0.002678,0.000431,0.000235
43029000,0.0324,0.013523,0.002678,0.000431,0.000235
43030000,0.0324,0.013523,0.002678,0.000431,0.000470
43031000,0.0324,0.013523,0.002678,0.000431,0.000353
43032000,0.0324,0.013523,0.002678,0.000431,0.000235
43033000,0.0324,0.013523,0.002678,0.000431,0.000353
43034000,0.0324,0.013523,0.002678,0.000431,0.000470
43035000,0.0324,0.013523,0.002678,0.000431,0.000118
43036000,0.0324,0.013523,0.002678,0.000431,0.000353
43037000,0.0324,0.013523,0.002678,0.000431,0.000470
43038000,0.0324,0.013523,0.002678,0.000431,0.000353
43039000,0.0324,0.013523,0.002678,0.000431,0.000235
43040000,0.0324,0.013523,0.002678,0.000431,0.000353
43041000,0.0324,0.013523,0.002678,0.000431,0.000470
43042000,0.0324,0.013523,0.002678,0.000431,0.000118
43043000,0.0324,0.013523,0.002678,0.000431,0.000353
43044000,0.0324,0.013523,0.002678,0.000431,0.000470
43045000,0.0324,0.013523,0.002678,0.000431,0.000353
43046000,0.0324,0.013523,0.002678,0.000431,0.000235
43047000,0.0324,0.013523,0.002678,0.000431,0.000353
43048000,0.0324,0.013523,0.002678,0.000431,0.000470
43049000,0.0324,0.013523,0.002678,0.000431,0.000118
43050000,0.0324,0.013523,0.002678,0.000431,0.000353
43051000,0.0324,0.013523,0.002678,0.000431,0.000470
43052000,0.0324,0.013523,0.002678,0.000431,0.000353
43053000,0.0324,0.013523,0.002678,0.000431,0.000235
43054000,0.0324,0.013523,0.002678,0.000431,0.000353
43055000,0.0324,0.013523,0.002678,0.000431,0.000353
43056000,0.0324,0.013523,0.002678,0.000431,0.000235
43057000,0.0324,0.013523,0.002678,0.000431,0.000353
43058000,0.0324,0.013523,0.002678,0.000431,0.000470
43059000,0.0324,0.013523,0.002678,0.000431,0.000353
43060000,0.0324,0.013523,0.002678,0.000431,0.000235
43061000,0.0324,0.013523,0.002678,0.000431,0.000353
43062000,0.0324,0.013523,0.002678,0.000431,0.000353
43063000,0.0324,0.013523,0.002678,0.000431,0.000235
43064000,0.0324,0.013523,0.002678,0.000431,0.000353
43065000,0.0324,0.013523,0.002678,0.000431,0.000470
43066000,0.0324,0.013523,0.002678,0.000431,0.000353
43067000,0.0324,0.013523,0.002678,0.000431,0.000235
43068000,0.0324,0.013523,0.002678,0.000431,0.000353
43069000,0.0324,0.013523,0.002678,0.000431,0.000353
43070000,0.0324,0.013523,0.002678,0.000431,0.000235
43071000,0.0324,0.013523,0.002678,0.000431,0.000353
43072000,0.0324,0.013523,0.002678,0.000431,0.000470
43073000,0.0324,0.013523,0.002678,0.000431,0.000353
43074000,0.0324,0.013523,0.002678,0.000431,0.000235
43075000,0.0324,0.013523,0.002678,0.000431,0.000353
43076000,0.0324,0.013523,0.002678,0.000431,0.000353
43077000,0.0324,0.013523,0.002678,0.000431,0.000235
43078000,0.0324,0.013523,0.002678,0.000431,0.000353
43079000,0.0324,0.013523,0.002678,0.000431,0.000470
43080000,0.0324,0.013523,0.002678,0.000431,0.000353
43081000,0.0324,0.013523,0.002678,0.000431,0.000235
43082000,0.0324,0.013523,0.002678,0.000431,0.000353
43083000,0.0324,0.013523,0.002678,0.000431,0.000353
43084000,0.0324,0.013523,0.002678,0.000431,0.000235
43085000,0.0324,0.013523,0.002678,0.000431,0.000353
43086000,0.0324,0.013523,0.002678,0.000431,0.000470
43087000,0.0324,0.013523,0.002678,0.000431,0.000353
43088000,0.0324,0.013523,0.002678,0.000431,0.000235
43089000,0.0324,0.013523,0.002678,0.000431,0.000353
43090000,0.0324,0.013523,0.002678,0.000431,0.000353
43091000,0.0324,0.013523,0.002678,0.000431,0.000235
43092000,0.0324,0.013523,0.002678,0.000431,0.000353
43093000,0.0324,0.013523,0.002678,0.000431,0.000470
43094000,0.0324,0.013523,0.002678,0.000431,0.000353
43095000,0.0324,0.013523,0.002678,0.000431,0.000235
43096000,0.0324,0.013523,0.002678,0.000431,0.000353
43097000,0.0324,0.013523,0.002678,0.000431,0.000353
43098000,0.0324,0.013523,0.002678,0.000431,0.000235
43099000,0.0324,0.013523,0.002678,0.000431,0.000353
43100000,0.0324,0.013523,0.002678,0.000431,0.000470
43101000,0.0324,0.013523,0.002678,0.000431,0.000353
43102000,0.0324,0.013523,0.002678,0.000431,0.000235
43103000,0.0324,0.013523,0.002678,0.000431,0.000353
43104000,0.0324,0.013523,0.002678,0.000431,0.000353
43105000,0.0324,0.013523,0.002678,0.000431,0.000235
43106000,0.0324,0.013523,0.002678,0.000431,0.000353
43107000,0.0324,0.013523,0.002678,0.000431,0.000470
43108000,0.0324,0.013523,0.002678,0.000431,0.000353
43109000,0.0324,0.013523,0.002678,0.000431,0.000118
43110000,0.0324,0.013523,0.002678,0.000431,0.000470
43111000,0.0324,0.013523,0.002678,0.000431,0.000353
43112000,0.0324,0.013523,0.002678,0.000431,0.000235
43113000,0.0324,0.013523,0.002678,0.000431,0.000353
43114000,0.0324,0.013523,0.002678,0.000431,0.000470
43115000,0.0324,0.013523,0.002678,0.000431,0.000353
43116000,0.0324,0.013523,0.002678,0.000431,0.000118
43117000,0.0324,0.013523,0.002678,0.000431,0.000470
43118000,0.0324,0.013523,0.002678,0.000431,0.000353
43119000,0.0324,0.013523,0.002678,0.000431,0.000235
43120000,0.0324,0.013523,0.002678,0.000431,0.000353
43121000,0.0324,0.013523,0.002678,0.000431,0.000470
43122000,0.0324,0.013523,0.002678,0.000431,0.000353
43123000,0.0324,0.013523,0.002678,0.000431,0.000118
43124000,0.0324,0.013523,0.002678,0.000431,0.000470
43125000,0.0324,0.013523,0.002678,0.000431,0.000353
43126000,0.0324,0.013523,0.002678,0.000431,0.000235
43127000,0.0324,0.013523,0.002678,0.000431,0.000353
43128000,0.0324,0.013523,0.002678,0.000431,0.000470
43129000,0.0324,0.013523,0.002678,0.000431,0.000235
43130000,0.0324,0.013523,0.002678,0.000431,0.000235
43131000,0.0324,0.013523,0.002678,0.000431,0.000470
43132000,0.0324,0.013523,0.002678,0.000431,0.000353
43133000,0.0324,0.013523,0.002678,0.000431,0.000235
43134000,0.0324,0.013523,0.002678,0.000431,0.000353
43135000,0.0324,0.013523,0.002678,0.000431,0.000470
43136000,0.0324,0.013523,0.002678,0.000431,0.000235
43137000,0.0324,0.013523,0.002678,0.000431,0.000235
43138000,0.0324,0.013523,0.002678,0.000431,0.000470
43139000,0.0324,0.013523,0.002678,0.000431,0.000353
43140000,0.0324,0.013523,0.002678,0.000431,0.000235
43141000,0.0324,0.013523,0.002678,0.000431,0.000353
43142000,0.0324,0.013523,0.002678,0.000431,0.000470
43143000,0.0324,0.013523,0.002678,0.000431,0.000235
43144000,0.0324,0.013523,0.002678,0.000431,0.000235
43145000,0.0324,0.013523,0.002678,0.000431,0.000470
43146000,0.0324,0.013523,0.002678,0.000431,0.000353
43147000,0.0324,0.013523,0.002678,0.000431,0.000235
43148000,0.0324,0.013523,0.002678,0.000431,0.000353
43149000,0.0324,0.013523,0.002678,0.000431,0.000470
43150000,0.0324,0.013523,0.002678,0.000431,0.000118
43151000,0.0324,0.013523,0.002678,0.000431,0.000353
43152000,0.0324,0.013523,0.002678,0.000431,0.000470
43153000,0.0324,0.013523,0.002678,0.000431,0.000353
43154000,0.0324,0.013523,0.002678,0.000431,0.000235
43155000,0.0324,0.013523,0.002678,0.000431,0.000353
43156000,0.0324,0.013523,0.002678,0.000431,0.000353
43157000,0.0324,0.013523,0.002678,0.000431,0.000235
43158000,0.0324,0.013523,0.002678,0.000431,0.000353
43159000,0.0324,0.013523,0.002678,0.000431,0.000470
43160000,0.0324,0.013523,0.002678,0.000431,0.000353
43161000,0.0324,0.013523,0.002678,0.000431,0.000235
43162000,0.0324,0.013523,0.002678,0.000431,0.000353
43163000,0.0324,0.013523,0.002678,0.000431,0.000353
43164000,0.0324,0.013523,0.002678,0.000431,0.000235
43165000,0.0324,0.013523,0.002678,0.000431,0.000353
43166000,0.0324,0.013523,0.002678,0.000431,0.000470
43167000,0.0324,0.013523,0.002678,0.000431,0.000353
43168000,0.0324,0.013523,0.002678,0.000431,0.000235
43169000,0.0324,0.013523,0.002678,0.000431,0.000353
43170000,0.0324,0.013523,0.002678,0.000431,0.000353
43171000,0.0324,0.013523,0.002678,0.000431,0.000235
43172000,0.0324,0.013523,0.002678,0.000431,0.000353
43173000,0.0324,0.013523,0.002678,0.000431,0.000470
43174000,0.0324,0.013523,0.002678,0.000431,0.000353
43175000,0.0324,0.013523,0.002678,0.000431,0.000118
43176000,0.0324,0.013523,0.002678,0.000431,0.000470
43177000,0.0324,0.013523,0.002678,0.000431,0.000353
43178000,0.0324,0.013523,0.002678,0.000431,0.000235
43179000,0.0324,0.013523,0.002678,0.000431,0.000353
43180000,0.0324,0.013523,0.002678,0.000431,0.000470
43181000,0.0324,0.013523,0.002678,0.000431,0.000235
43182000,0.0324,0.013523,0.002678,0.000431,0.000235
43183000,0.0324,0.013523,0.002678,0.000431,0.000470
43184000,0.0324,0.013523,0.002678,0.000431,0.000353
43185000,0.0324,0.013523,0.002678,0.000431,0.000235
43186000,0.0324,0.013523,0.002678,0.000431,0.000353
43187000,0.0324,0.013523,0.002678,0.000431,0.000470
43188000,0.0324,0.013523,0.002678,0.000431,0.000235
43189000,0.0324,0.013523,0.002678,0.000431,0.000235
43190000,0.0324,0.013523,0.002678,0.000431,0.000470
43191000,0.0324,0.013523,0.002678,0.000431,0.000353
43192000,0.0324,0.013523,0.002678,0.000431,0.000235
43193000,0.0324,0.013523,0.002678,0.000431,0.000353
43194000,0.0324,0.013523,0.002678,0.000431,0.000470
43195000,0.0324,0.013523,0.002678,0.000431,0.000118
43196000,0.0324,0.013523,0.002678,0.000431,0.000353
43197000,0.0324,0.013523,0.002678,0.000431,0.000470
43198000,0.0324,0.013523,0.002678,0.000431,0.000353
43199000,0.0324,0.013523,0.002678,0.000431,0.000235
43200000,0.0324,0.013523,0.002678,0.000431,0.000353
43201000,0.0324,0.013523,0.002678,0.000431,0.000353
43202000,0.0324,0.013523,0.002678,0.000431,0.000235
43203000,0.0324,0.013523,0.002678,0.000431,0.000353
43204000,0.0324,0.013523,0.002678,0.000431,0.000470
43205000,0.0324,0.013523,0.002678,0.000431,0.000353
43206000,0.0324,0.013523,0.002678,0.000431,0.000235
43207000,0.0324,0.013523,0.002678,0.000431,0.000353
43208000,0.0324,0.013523,0.002678,0.000431,0.000353
43209000,0.0324,0.013523,0.002678,0.000431,0.000235
43210000,0.0324,0.013523,0.002678,0.000431,0.000353
43211000,0.0324,0.013523,0.002678,0.000431,0.000470
43212000,0.0324,0.013523,0.002678,0.000431,0.000353
43213000,0.0324,0.013523,0.002678,0.000431,0.000235
43214000,0.0324,0.013523,0.002678,0.000431,0.000353
43215000,0.0324,0.013523,0.002678,0.000431,0.000353
43216000,0.0324,0.013523,0.002678,0.000431,0.000235
43217000,0.0324,0.013523,0.002678,0.000431,0.000353
43218000,0.0324,0.013523,0.002678,0.000431,0.000470
43219000,0.0324,0.013523,0.002678,0.000431,0.000353
43220000,0.0324,0.013523,0.002678,0.000431,0.000118
43221000,0.0324,0.013523,0.002678,0.000431,0.000470
43222000,0.0324,0.013523,0.002678,0.000431,0.000353
43223000,0.0324,0.013523,0.002678,0.000431,0.000235
43224000,0.0324,0.013523,0.002678,0.000431,0.000353
43225000,0.0324,0.013523,0.002678,0.000431,0.000470
43226000,0.0324,0.013523,0.002678,0.000431,0.000235
43227000,0.0324,0.013523,0.002678,0.000431,0.000235
43228000,0.0324,0.013523,0.002678,0.000431,0.000470
43229000,0.0324,0.013523,0.002678,0.000431,0.000353
43230000,0.0324,0.013523,0.002678,0.000431,0.000235
43231000,0.0324,0.013523,0.002678,0.000431,0.000353
43232000,0.0324,0.013523,0.002678,0.000431,0.000470
43233000,0.0324,0.013523,0.002678,0.000431,0.000118
43234000,0.0324,0.013523,0.002678,0.000431,0.000353
43235000,0.0324,0.013523,0.002678,0.000431,0.000470
43236000,0.0324,0.013523,0.002678,0.000431,0.000353
43237000,0.0324,0.013523,0.002678,0.000431,0.000235
43238000,0.0324,0.013523,0.002678,0.000431,0.000353
43239000,0.0324,0.013523,0.002678,0.000431,0.000470
43240000,0.0324,0.013523,0.002678,0.000431,0.000118
43241000,0.0324,0.013523,0.002678,0.000431,0.000353
43242000,0.0324,0.013523,0.002678,0.000431,0.000470
43243000,0.0324,0.013523,0.002678,0.000431,0.000353
43244000,0.0324,0.013523,0.002678,0.000431,0.000235
43245000,0.0324,0.013523,0.002678,0.000431,0.000353
43246000,0.0324,0.013523,0.002678,0.000431,0.000353
43247000,0.0324,0.013523,0.002678,0.000431,0.000235
43248000,0.0324,0.013523,0.002678,0.000431,0.000353
43249000,0.0324,0.013523,0.002678,0.000431,0.000470
43250000,0.0324,0.013523,0.002678,0.000431,0.000353
43251000,0.0324,0.013523,0.002678,0.000431,0.000235
43252000,0.0324,0.013523,0.002678,0.000431,0.000353
43253000,0.0324,0.013523,0.002678,0.000431,0.000353
43254000,0.0324,0.013523,0.002678,0.000431,0.000235
43255000,0.0324,0.013523,0.002678,0.000431,0.000353
43256000,0.0324,0.013523,0.002678,0.000431,0.000470
43257000,0.0324,0.013523,0.002678,0.000431,0.000353
43258000,0.0324,0.013523,0.002678,0.000431,0.000118
43259000,0.0324,0.013523,0.002678,0.000431,0.000470
43260000,0.0324,0.013523,0.002678,0.000431,0.000353
43261000,0.0324,0.013523,0.002678,0.000431,0.000235
43262000,0.0324,0.013523,0.002678,0.000431,0.000353
43263000,0.0324,0.013523,0.002678,0.000431,0.000470
43264000,0.0324,0.013523,0.002678,0.000431,0.000235
43265000,0.0324,0.013523,0.002678,0.000431,0.000235
43266000,0.0324,0.013523,0.002678,0.000431,0.000470
43267000,0.0324,0.013523,0.002678,0.000431,0.000353
43268000,0.0324,0.013523,0.002678,0.000431,0.000235
43269000,0.0324,0.013523,0.002678,0.000431,0.000353
43270000,0.0324,0.013523,0.002678,0.000431,0.000470
43271000,0.0324,0.013523,0.002678,0.000431,0.000235
43272000,0.0324,0.013523,0.002678,0.000431,0.000235
43273000,0.0324,0.013523,0.002678,0.000431,0.000470
43274000,0.0324,0.013523,0.002678,0.000431,0.000353
43275000,0.0324,0.013523,0.002678,0.000431,0.000235
43276000,0.0324,0.013523,0.002678,0.000431,0.000353
43277000,0.0324,0.013523,0.002678,0.000431,0.000470
43278000,0.0324,0.013523,0.002678,0.000431,0.000118
43279000,0.0324,0.013523,0.002678,0.000431,0.000353
43280000,0.0324,0.013523,0.002678,0.000431,0.000470
43281000,0.0324,0.013523,0.002678,0.000431,0.000353
43282000,0.0324,0.013523,0.002678,0.000431,0.000235
43283000,0.0324,0.013523,0.002678,0.000431,0.000353
43284000,0.0324,0.013523,0.002678,0.000431,0.000353
43285000,0.0324,0.013523,0.002678,0.000431,0.000235
43286000,0.0324,0.013523,0.002678,0.000431,0.000353
43287000,0.0324,0.013523,0.002678,0.000431,0.000470
43288000,0.0324,0.013523,0.002678,0.000431,0.000353
43289000,0.0324,0.013523,0.002678,0.000431,0.000235
43290000,0.0324,0.013523,0.002678,0.000431,0.000353
43291000,0.0324,0.013523,0.002678,0.000431,0.000353
43292000,0.0324,0.013523,0.002678,0.000431,0.000235
43293000,0.0324,0.013523,0.002678,0.000431,0.000353
43294000,0.0324,0.013523,0.002678,0.000431,0.000470
43295000,0.0324,0.013523,0.002678,0.000431,0.000353
43296000,0.0324,0.013523,0.002678,0.000431,0.000235
43297000,0.0324,0.013523,0.002678,0.000431,0.000353
43298000,0.0324,0.013523,0.002678,0.000431,0.000353
43299000,0.0324,0.013523,0.002678,0.000431,0.000235
43300000,0.0324,0.013523,0.002678,0.000431,0.000353
43301000,0.0324,0.013523,0.002678,0.000431,0.000470
43302000,0.0324,0.013523,0.002678,0.000431,0.000353
43303000,0.0324,0.013523,0.002678,0.000431,0.000235
43304000,0.0324,0.013523,0.002678,0.000431,0.000353
43305000,0.0324,0.013523,0.002678,0.000431,0.000353
43306000,0.0324,0.013523,0.002678,0.000431,0.000235
43307000,0.0324,0.013523,0.002678,0.000431,0.000353
43308000,0.0324,0.013523,0.002678,0.000431,0.000470
43309000,0.0324,0.013523,0.002678,0.000431,0.000353
43310000,0.0324,0.013523,0.002678,0.000431,0.000235
43311000,0.0324,0.013523,0.002678,0.000431,0.000353
43312000,0.0324,0.013523,0.002678,0.000431,0.000353
43313000,0.0324,0.013523,0.002678,0.000431,0.000235
43314000,0.0324,0.013523,0.002678,0.000431,0.000353
43315000,0.0324,0.013523,0.002678,0.000431,0.000470
43316000,0.0324,0.013523,0.002678,0.000431,0.000353
43317000,0.0324,0.013523,0.002678,0.000431,0.000235
43318000,0.0324,0.013523,0.002678,0.000431,0.000353
43319000,0.0324,0.013523,0.002678,0.000431,0.000353
43320000,0.0324,0.013523,0.002678,0.000431,0.000235
43321000,0.0324,0.013523,0.002678,0.000431,0.000353
43322000,0.0324,0.013523,0.002678,0.000431,0.000470
43323000,0.0324,0.013523,0.002678,0.000431,0.000353
43324000,0.0324,0.013523,0.002678,0.000431,0.000235
43325000,0.0324,0.013523,0.002678,0.000431,0.000353
43326000,0.0324,0.013523,0.002678,0.000431,0.000353
43327000,0.0324,0.013523,0.002678,0.000431,0.000235
43328000,0.0324,0.013523,0.002678,0.000431,0.000353
43329000,0.0324,0.013523,0.002678,0.000431,0.000470
43330000,0.0324,0.013523,0.002678,0.000431,0.000353
43331000,0.0324,0.013523,0.002678,0.000431,0.000118
43332000,0.0324,0.013523,0.002678,0.000431,0.000470
43333000,0.0324,0.013523,0.002678,0.000431,0.000353
43334000,0.0324,0.013523,0.002678,0.000431,0.000235
43335000,0.0324,0.013523,0.002678,0.000431,0.000353
43336000,0.0324,0.013523,0.002678,0.000431,0.000470
43337000,0.0324,0.013523,0.002678,0.000431,0.000353
43338000,0.0324,0.013523,0.002678,0.000431,0.000118
43339000,0.0324,0.013523,0.002678,0.000431,0.000470
43340000,0.0324,0.013523,0.002678,0.000431,0.000353
43341000,0.0324,0.013523,0.002678,0.000431,0.000235
43342000,0.0324,0.013523,0.002678,0.000431,0.000353
43343000,0.0324,0.013523,0.002678,0.000431,0.000470
43344000,0.0324,0.013523,0.002678,0.000431,0.000353
43345000,0.0324,0.013523,0.002678,0.000431,0.000118
43346000,0.0324,0.013523,0.002678,0.000431,0.000470
43347000,0.0324,0.013523,0.002678,0.000431,0.000353
43348000,0.0324,0.013523,0.002678,0.000431,0.000235
43349000,0.0324,0.013523,0.002678,0.000431,0.000353
43350000,0.0324,0.013523,0.002678,0.000431,0.000470
43351000,0.0324,0.013523,0.002678,0.000431,0.000353
43352000,0.0324,0.013523,0.002678,0.000431,0.000118
43353000,0.0324,0.013523,0.002678,0.000431,0.000470
43354000,0.0324,0.013523,0.002678,0.000431,0.000353
43355000,0.0324,0.013523,0.002678,0.000431,0.000235
43356000,0.0324,0.013523,0.002678,0.000431,0.000353
43357000,0.0324,0.013523,0.002678,0.000431,0.000470
43358000,0.0324,0.013523,0.002678,0.000431,0.000235
43359000,0.0324,0.013523,0.002678,0.000431,0.000235
43360000,0.0324,0.013523,0.002678,0.000431,0.000470
43361000,0.0324,0.013523,0.002678,0.000431,0.000353
43362000,0.0324,0.013523,0.002678,0.000431,0.000235
43363000,0.0324,0.013523,0.002678,0.000431,0.000353
43364000,0.0324,0.013523,0.002678,0.000431,0.000470
43365000,0.0324,0.013523,0.002678,0.000431,0.000235
43366000,0.0324,0.013523,0.002678,0.000431,0.000235
43367000,0.0324,0.013523,0.002678,0.000431,0.000470
43368000,0.0324,0.013523,0.002678,0.000431,0.000353
43369000,0.0324,0.013523,0.002678,0.000431,0.000235
43370000,0.0324,0.013523,0.002678,0.000431,0.000353
43371000,0.0324,0.013523,0.002678,0.000431,0.000470
43372000,0.0324,0.013523,0.002678,0.000431,0.000235
43373000,0.0324,0.013523,0.002678,0.000431,0.000235
43374000,0.0324,0.013523,0.002678,0.000431,0.000470
43375000,0.0324,0.013523,0.002678,0.000431,0.000353
43376000,0.0324,0.013523,0.002678,0.000431,0.000235
43377000,0.0324,0.013523,0.002678,0.000431,0.000353
43378000,0.0324,0.013523,0.002678,0.000431,0.000470
43379000,0.0324,0.013523,0.002678,0.000431,0.000235
43380000,0.0324,0.013523,0.002678,0.000431,0.000235
43381000,0.0324,0.013523,0.002678,0.000431,0.000470
43382000,0.0324,0.013523,0.002678,0.000431,0.000353
43383000,0.0324,0.013523,0.002678,0.000431,0.000235
43384000,0.0324,0.013523,0.002678,0.000431,0.000353
43385000,0.0324,0.013523,0.002678,0.000431,0.000470
43386000,0.0324,0.013523,0.002678,0.000431,0.000235
43387000,0.0324,0.013523,0.002678,0.000431,0.000235
43388000,0.0324,0.013523,0.002678,0.000431,0.000470
43389000,0.0324,0.013523,0.002678,0.000431,0.000353
43390000,0.0324,0.013523,0.002678,0.000431,0.000235
43391000,0.0324,0.013523,0.002678,0.000431,0.000353
43392000,0.0324,0.013523,0.002678,0.000431,0.000470
43393000,0.0324,0.013523,0.002678,0.000431,0.000118
43394000,0.0324,0.013523,0.002678,0.000431,0.000353
43395000,0.0324,0.013523,0.002678,0.000431,0.000470
43396000,0.0324,0.013523,0.002678,0.000431,0.000353
43397000,0.0324,0.013523,0.002678,0.000431,0.000235
43398000,0.0324,0.013523,0.002678,0.000431,0.000353
43399000,0.0324,0.013523,0.002678,0.000431,0.000470
43400000,0.0324,0.013523,0.002678,0.000431,0.000118
43401000,0.0324,0.013523,0.002678,0.000431,0.000353
43402000,0.0324,0.013523,0.002678,0.000431,0.000470
43403000,0.0324,0.013523,0.002678,0.000431,0.000353
43404000,0.0324,0.013523,0.002678,0.000431,0.000235
43405000,0.0324,0.013523,0.002678,0.000431,0.000353
43406000,0.0324,0.013523,0.002678,0.000431,0.000470
43407000,0.0324,0.013523,0.002678,0.000431,0.000118
43408000,0.0324,0.013523,0.002678,0.000431,0.000353
43409000,0.0324,0.013523,0.002678,0.000431,0.000470
43410000,0.0324,0.013523,0.002678,0.000431,0.000353
43411000,0.0324,0.013523,0.002678,0.000431,0.000235
43412000,0.0324,0.013523,0.002678,0.000431,0.000353
43413000,0.0324,0.013523,0.002678,0.000431,0.000470
43414000,0.0324,0.013523,0.002678,0.000431,0.000118
43415000,0.0324,0.013523,0.002678,0.000431,0.000353
43416000,0.0324,0.013523,0.002678,0.000431,0.000470
43417000,0.0324,0.013523,0.002678,0.000431,0.000353
43418000,0.0324,0.013523,0.002678,0.000431,0.000235
43419000,0.0324,0.013523,0.002678,0.000431,0.000353
43420000,0.0324,0.013523,0.002678,0.000431,0.000353
43421000,0.0324,0.013523,0.002678,0.000431,0.000235
43422000,0.0324,0.013523,0.002678,0.000431,0.000353
43423000,0.0324,0.013523,0.002678,0.000431,0.000470
43424000,0.0324,0.013523,0.002678,0.000431,0.000353
43425000,0.0324,0.013523,0.002678,0.000431,0.000235
43426000,0.0324,0.013523,0.002678,0.000431,0.000353
43427000,0.0324,0.013523,0.002678,0.000431,0.000353
43428000,0.0324,0.013523,0.002678,0.000431,0.000235
43429000,0.0324,0.013523,0.002678,0.000431,0.000353
43430000,0.0324,0.013523,0.002678,0.000431,0.000470
43431000,0.0324,0.013523,0.002678,0.000431,0.000353
43432000,0.0324,0.013523,0.002678,0.000431,0.000235
43433000,0.0324,0.013523,0.002678,0.000431,0.000353
43434000,0.0324,0.013523,0.002678,0.000431,0.000353
43435000,0.0324,0.013523,0.002678,0.000431,0.000235
43436000,0.0324,0.013523,0.002678,0.000431,0.000353
43437000,0.0324,0.013523,0.002678,0.000431,0.000470
43438000,0.0324,0.013523,0.002678,0.000431,0.000353
43439000,0.0324,0.013523,0.002678,0.000431,0.000235
43440000,0.0324,0.013523,0.002678,0.000431,0.000353
43441000,0.0324,0.013523,0.002678,0.000431,0.000353
43442000,0.0324,0.013523,0.002678,0.000431,0.000235
43443000,0.0324,0.013523,0.002678,0.000431,0.000353
43444000,0.0324,0.013523,0.002678,0.000431,0.000470
43445000,0.0324,0.013523,0.002678,0.000431,0.000353
43446000,0.0324,0.013523,0.002678,0.000431,0.000235
43447000,0.0324,0.013523,0.002678,0.000431,0.000353
43448000,0.0324,0.013523,0.002678,0.000431,0.000353
43449000,0.0324,0.013523,0.002678,0.000431,0.000235
43450000,0.0324,0.013523,0.002678,0.000431,0.000353
43451000,0.0324,0.013523,0.002678,0.000431,0.000470
43452000,0.0324,0.013523,0.002678,0.000431,0.000353
43453000,0.0324,0.013523,0.002678,0.000431,0.000235
43454000,0.0324,0.013523,0.002678,0.000431,0.000353
43455000,0.0324,0.013523,0.002678,0.000431,0.000353
43456000,0.0324,0.013523,0.002678,0.000431,0.000235
43457000,0.0324,0.013523,0.002678,0.000431,0.000353
43458000,0.0324,0.013523,0.002678,0.000431,0.000470
43459000,0.0324,0.013523,0.002678,0.000431,0.000353
43460000,0.0324,0.013523,0.002678,0.000431,0.000235
43461000,0.0324,0.013523,0.002678,0.000431,0.000353
43462000,0.0324,0.013523,0.002678,0.000431,0.000353
43463000,0.0324,0.013523,0.002678,0.000431,0.000235
43464000,0.0324,0.013523,0.002678,0.000431,0.000353
43465000,0.0324,0.013523,0.002678,0.000431,0.000470
43466000,0.0324,0.013523,0.002678,0.000431,0.000353
43467000,0.0324,0.013523,0.002678,0.000431,0.000235
43468000,0.0324,0.013523,0.002678,0.000431,0.000353
43469000,0.0324,0.013523,0.002678,0.000431,0.000353
43470000,0.0324,0.013523,0.002678,0.000431,0.000235
43471000,0.0324,0.013523,0.002678,0.000431,0.000353
43472000,0.0324,0.013523,0.002678,0.000431,0.000470
43473000,0.0324,0.013523,0.002678,0.000431,0.000353
43474000,0.0324,0.013523,0.002678,0.000431,0.000118
43475000,0.0324,0.013523,0.002678,0.000431,0.000470
43476000,0.0324,0.013523,0.002678,0.000431,0.000353
43477000,0.0324,0.013523,0.002678,0.000431,0.000235
43478000,0.0324,0.013523,0.002678,0.000431,0.000353
43479000,0.0324,0.013523,0.002678,0.000431,0.000470
43480000,0.0324,0.013523,0.002678,0.000431,0.000353
43481000,0.0324,0.013523,0.002678,0.000431,0.000118
43482000,0.0324,0.013523,0.002678,0.000431,0.000470
43483000,0.0324,0.013523,0.002678,0.000431,0.000353
43484000,0.0324,0.013523,0.002678,0.000431,0.000235
43485000,0.0324,0.013523,0.002678,0.000431,0.000353
43486000,0.0324,0.013523,0.002678,0.000431,0.000470
43487000,0.0324,0.013523,0.002678,0.000431,0.000353
43488000,0.0324,0.013523,0.002678,0.000431,0.000118
43489000,0.0324,0.013523,0.002678,0.000431,0.000470
43490000,0.0324,0.013523,0.002678,0.000431,0.000353
43491000,0.0324,0.013523,0.002678,0.000431,0.000235
43492000,0.0324,0.013523,0.002678,0.000431,0.000353
43493000,0.0324,0.013523,0.002678,0.000431,0.000470
43494000,0.0324,0.013523,0.002678,0.000431,0.000235
43495000,0.0324,0.013523,0.002678,0.000431,0.000235
43496000,0.0324,0.013523,0.002678,0.000431,0.000470
43497000,0.0324,0.013523,0.002678,0.000431,0.000353
43498000,0.0324,0.013523,0.002678,0.000431,0.000235
43499000,0.0324,0.013523,0.002678,0.000431,0.000353
43500000,0.0324,0.013523,0.002678,0.000431,0.000470
43501000,0.0324,0.013523,0.002678,0.000431,0.000235
43502000,0.0324,0.013523,0.002678,0.000431,0.000235
43503000,0.0324,0.013523,0.002678,0.000431,0.000470
43504000,0.0324,0.013523,0.002678,0.000431,0.000353
43505000,0.0324,0.013523,0.002678,0.000431,0.000235
43506000,0.0324,0.013523,0.002678,0.000431,0.000353
43507000,0.0324,0.013523,0.002678,0.000431,0.000470
43508000,0.0324,0.013523,0.002678,0.000431,0.000235
43509000,0.0324,0.013523,0.002678,0.000431,0.000235
43510000,0.0324,0.013523,0.002678,0.000431,0.000470
43511000,0.0324,0.013523,0.002678,0.000431,0.000353
43512000,0.0324,0.013523,0.002678,0.000431,0.000235
43513000,0.0324,0.013523,0.002678,0.000431,0.000353
43514000,0.0324,0.013523,0.002678,0.000431,0.000470
43515000,0.0324,0.013523,0.002678,0.000431,0.000235
43516000,0.0324,0.013523,0.002678,0.000431,0.000235
43517000,0.0324,0.013523,0.002678,0.000431,0.000470
43518000,0.0324,0.013523,0.002678,0.000431,0.000353
43519000,0.0324,0.013523,0.002678,0.000431,0.000235
43520000,0.0324,0.013523,0.002678,0.000431,0.000353
43521000,0.0324,0.013523,0.002678,0.000431,0.000470
43522000,0.0324,0.013523,0.002678,0.000431,0.000235
43523000,0.0324,0.013523,0.002678,0.000431,0.000235
43524000,0.0324,0.013523,0.002678,0.000431,0.000470
43525000,0.0324,0.013523,0.002678,0.000431,0.000353
43526000,0.0324,0.013523,0.002678,0.000431,0.000235
43527000,0.0324,0.013523,0.002678,0.000431,0.000353
43528000,0.0324,0.013523,0.002678,0.000431,0.000470
43529000,0.0324,0.013523,0.002678,0.000431,0.000235
43530000,0.0324,0.013523,0.002678,0.000431,0.000235
43531000,0.0324,0.013523,0.002678,0.000431,0.000470
43532000,0.0324,0.013523,0.002678,0.000431,0.000353
43533000,0.0324,0.013523,0.002678,0.000431,0.000235
43534000,0.0324,0.013523,0.002678,0.000431,0.000353
43535000,0.0324,0.013523,0.002678,0.000431,0.000470
43536000,0.0324,0.013523,0.002678,0.000431,0.000118
43537000,0.0324,0.013523,0.002678,0.000431,0.000353
43538000,0.0324,0.013523,0.002678,0.000431,0.000470
43539000,0.0324,0.013523,0.002678,0.000431,0.000353
43540000,0.0324,0.013523,0.002678,0.000431,0.000235
43541000,0.0324,0.013523,0.002678,0.000431,0.000353
43542000,0.0324,0.013523,0.002678,0.000431,0.000470
43543000,0.0324,0.013523,0.002678,0.000431,0.000118
43544000,0.0324,0.013523,0.002678,0.000431,0.000353
43545000,0.0324,0.013523,0.002678,0.000431,0.000470
43546000,0.0324,0.013523,0.002678,0.000431,0.000353
43547000,0.0324,0.013523,0.002678,0.000431,0.000235
43548000,0.0324,0.013523,0.002678,0.000431,0.000353
43549000,0.0324,0.013523,0.002678,0.000431,0.000470
43550000,0.0324,0.013523,0.002678,0.000431,0.000118
43551000,0.0324,0.013523,0.002678,0.000431,0.000353
43552000,0.0324,0.013523,0.002678,0.000431,0.000470
43553000,0.0324,0.013523,0.002678,0.000431,0.000353
43554000,0.0324,0.013523,0.002678,0.000431,0.000235
43555000,0.0324,0.013523,0.002678,0.000431,0.000353
43556000,0.0324,0.013523,0.002678,0.000431,0.000470
43557000,0.0324,0.013523,0.002678,0.000431,0.000118
43558000,0.0324,0.013523,0.002678,0.000431,0.000353
43559000,0.0324,0.013523,0.002678,0.000431,0.000470
43560000,0.0324,0.013523,0.002678,0.000431,0.000353
43561000,0.0324,0.013523,0.002678,0.000431,0.000235
43562000,0.0324,0.013523,0.002678,0.000431,0.000353
43563000,0.0324,0.013523,0.002678,0.000431,0.000353
43564000,0.0324,0.013523,0.002678,0.000431,0.000235
43565000,0.0324,0.013523,0.002678,0.000431,0.000353
43566000,0.0324,0.013523,0.002678,0.000431,0.000470
43567000,0.0324,0.013523,0.002678,0.000431,0.000353
43568000,0.0324,0.013523,0.002678,0.000431,0.000235
43569000,0.0324,0.013523,0.002678,0.000431,0.000353
43570000,0.0324,0.013523,0.002678,0.000431,0.000353
43571000,0.0324,0.013523,0.002678,0.000431,0.000235
43572000,0.0324,0.013523,0.002678,0.000431,0.000353
43573000,0.0324,0.013523,0.002678,0.000431,0.000470
43574000,0.0324,0.013523,0.002678,0.000431,0.000353
43575000,0.0324,0.013523,0.002678,0.000431,0.000235
43576000,0.0324,0.013523,0.002678,0.000431,0.000353
43577000,0.0324,0.013523,0.002678,0.000431,0.000353
43578000,0.0324,0.013523,0.002678,0.000431,0.000235
43579000,0.0324,0.013523,0.002678,0.000431,0.000353
43580000,0.0324,0.013523,0.002678,0.000431,0.000470
43581000,0.0324,0.013523,0.002678,0.000431,0.000353
43582000,0.0324,0.013523,0.002678,0.000431,0.000235
43583000,0.0324,0.013523,0.002678,0.000431,0.000353
43584000,0.0324,0.013523,0.002678,0.000431,0.000353
43585000,0.0324,0.013523,0.002678,0.000431,0.000235
43586000,0.0324,0.013523,0.002678,0.000431,0.000353
43587000,0.0324,0.013523,0.002678,0.000431,0.000470
43588000,0.0324,0.013523,0.002678,0.000431,0.000353
43589000,0.0324,0.013523,0.002678,0.000431,0.000235
43590000,0.0324,0.013523,0.002678,0.000431,0.000353
43591000,0.0324,0.013523,0.002678,0.000431,0.000353
43592000,0.0324,0.013523,0.002678,0.000431,0.000235
43593000,0.0324,0.013523,0.002678,0.000431,0.000353
43594000,0.0324,0.013523,0.002678,0.000431,0.000470
43595000,0.0324,0.013523,0.002678,0.000431,0.000353
43596000,0.0324,0.013523,0.002678,0.000431,0.000235
43597000,0.0324,0.013523,0.002678,0.000431,0.000353
43598000,0.0324,0.013523,0.002678,0.000431,0.000353
43599000,0.0324,0.013523,0.002678,0.000431,0.000235
43600000,0.0324,0.013523,0.002678,0.000431,0.000353
43601000,0.0324,0.013523,0.002678,0.000431,0.000470
43602000,0.0324,0.013523,0.002678,0.000431,0.000353
43603000,0.0324,0.013523,0.002678,0.000431,0.000235
43604000,0.0324,0.013523,0.002678,0.000431,0.000353
43605000,0.0324,0.013523,0.002678,0.000431,0.000353
43606000,0.0324,0.013523,0.002678,0.000431,0.000235
43607000,0.0324,0.013523,0.002678,0.000431,0.000353
43608000,0.0324,0.013523,0.002678,0.000431,0.000470
43609000,0.0324,0.013523,0.002678,0.000431,0.000353
43610000,0.0324,0.013523,0.002678,0.000431,0.000118
43611000,0.0324,0.013523,0.002678,0.000431,0.000470
43612000,0.0324,0.013523,0.002678,0.000431,0.000353
43613000,0.0324,0.013523,0.002678,0.000431,0.000235
43614000,0.0324,0.013523,0.002678,0.000431,0.000353
43615000,0.0324,0.013523,0.002678,0.000431,0.000470
43616000,0.0324,0.013523,0.002678,0.000431,0.000353
43617000,0.0324,0.013523,0.002678,0.000431,0.000118
43618000,0.0324,0.013523,0.002678,0.000431,0.000470
43619000,0.0324,0.013523,0.002678,0.000431,0.000353
43620000,0.0324,0.013523,0.002678,0.000431,0.000235
43621000,0.0324,0.013523,0.002678,0.000431,0.000353
43622000,0.0324,0.013523,0.002678,0.000431,0.000470
43623000,0.0324,0.013523,0.002678,0.000431,0.000353
43624000,0.0324,0.013523,0.002678,0.000431,0.000118
43625000,0.0324,0.013523,0.002678,0.000431,0.000470
43626000,0.0324,0.013523,0.002678,0.000431,0.000353
43627000,0.0324,0.013523,0.002678,0.000431,0.000235
43628000,0.0324,0.013523,0.002678,0.000431,0.000353
43629000,0.0324,0.013523,0.002678,0.000431,0.000470
43630000,0.0324,0.013523,0.002678,0.000431,0.000353
43631000,0.0324,0.013523,0.002678,0.000431,0.000118
43632000,0.0324,0.013523,0.002678,0.000431,0.000470
43633000,0.0324,0.013523,0.002678,0.000431,0.000353
43634000,0.0324,0.013523,0.002678,0.000431,0.000235
43635000,0.0324,0.013523,0.002678,0.000431,0.000353
43636000,0.0324,0.013523,0.002678,0.000431,0.000470
43637000,0.0324,0.013523,0.002678,0.000431,0.000235
43638000,0.0324,0.013523,0.002678,0.000431,0.000235
43639000,0.0324,0.013523,0.002678,0.000431,0.000470
43640000,0.0324,0.013523,0.002678,0.000431,0.000353
43641000,0.0324,0.013523,0.002678,0.000431,0.000235
43642000,0.0324,0.013523,0.002678,0.000431,0.000353
43643000,0.0324,0.013523,0.002678,0.000431,0.000470
43644000,0.0324,0.013523,0.002678,0.000431,0.000235
43645000,0.0324,0.013523,0.002678,0.000431,0.000235
43646000,0.0324,0.013523,0.002678,0.000431,0.000470
43647000,0.0324,0.013523,0.002678,0.000431,0.000353
43648000,0.0324,0.013523,0.002678,0.000431,0.000235
43649000,0.0324,0.013523,0.002678,0.000431,0.000353
43650000,0.0324,0.013523,0.002678,0.000431,0.000470
43651000,0.0324,0.013523,0.002678,0.000431,0.000235
43652000,0.0324,0.013523,0.002678,0.000431,0.000235
43653000,0.0324,0.013523,0.002678,0.000431,0.000470
43654000,0.0324,0.013523,0.002678,0.000431,0.000353
43655000,0.0324,0.013523,0.002678,0.000431,0.000235
43656000,0.0324,0.013523,0.002678,0.000431,0.000353
43657000,0.0324,0.013523,0.002678,0.000431,0.000470
43658000,0.0324,0.013523,0.002678,0.000431,0.000235
43659000,0.0324,0.013523,0.002678,0.000431,0.000235
43660000,0.0324,0.013523,0.002678,0.000431,0.000470
43661000,0.0324,0.013523,0.002678,0.000431,0.000353
43662000,0.0324,0.013523,0.002678,0.000431,0.000235
43663000,0.0324,0.013523,0.002678,0.000431,0.000353
43664000,0.0324,0.013523,0.002678,0.000431,0.000470
43665000,0.0324,0.013523,0.002678,0.000431,0.000235
43666000,0.0324,0.013523,0.002678,0.000431,0.000235
43667000,0.0324,0.013523,0.002678,0.000431,0.000470
43668000,0.0324,0.013523,0.002678,0.000431,0.000353
43669000,0.0324,0.013523,0.002678,0.000431,0.000235
43670000,0.0324,0.013523,0.002678,0.000431,0.000353
43671000,0.0324,0.013523,0.002678,0.000431,0.000470
43672000,0.0324,0.013523,0.002678,0.000431,0.000235
43673000,0.0324,0.013523,0.002678,0.000431,0.000235
43674000,0.0324,0.013523,0.002678,0.000431,0.000470
43675000,0.0324,0.013523,0.002678,0.000431,0.000353
43676000,0.0324,0.013523,0.002678,0.000431,0.000235
43677000,0.0324,0.013523,0.002678,0.000431,0.000353
43678000,0.0324,0.013523,0.002678,0.000431,0.000470
43679000,0.0324,0.013523,0.002678,0.000431,0.000118
43680000,0.0324,0.013523,0.002678,0.000431,0.000353
43681000,0.0324,0.013523,0.002678,0.000431,0.000470
43682000,0.0324,0.013523,0.002678,0.000431,0.000353
43683000,0.0324,0.013523,0.002678,0.000431,0.000235
43684000,0.0324,0.013523,0.002678,0.000431,0.000353
43685000,0.0324,0.013523,0.002678,0.000431,0.000470
43686000,0.0324,0.013523,0.002678,0.000431,0.000118
43687000,0.0324,0.013523,0.002678,0.000431,0.000353
43688000,0.0324,0.013523,0.002678,0.000431,0.000470
43689000,0.0324,0.013523,0.002678,0.000431,0.000353
43690000,0.0324,0.013523,0.002678,0.000431,0.000235
43691000,0.0324,0.013523,0.002678,0.000431,0.000353
43692000,0.0324,0.013523,0.002678,0.000431,0.000470
43693000,0.0324,0.013523,0.002678,0.000431,0.000118
43694000,0.0324,0.013523,0.002678,0.000431,0.000353
43695000,0.0324,0.013523,0.002678,0.000431,0.000470
43696000,0.0324,0.013523,0.002678,0.000431,0.000353
43697000,0.0324,0.013523,0.002678,0.000431,0.000235
43698000,0.0324,0.013523,0.002678,0.000431,0.000353
43699000,0.0324,0.013523,0.002678,0.000431,0.000353
43700000,0.0324,0.013523,0.002678,0.000431,0.000235
43701000,0.0324,0.013523,0.002678,0.000431,0.000353
43702000,0.0324,0.013523,0.002678,0.000431,0.000470
43703000,0.0324,0.013523,0.002678,0.000431,0.000353
43704000,0.0324,0.013523,0.002678,0.000431,0.000235
43705000,0.0324,0.013523,0.002678,0.000431,0.000353
43706000,0.0324,0.013523,0.002678,0.000431,0.000353
43707000,0.0324,0.013523,0.002678,0.000431,0.000235
43708000,0.0324,0.013523,0.002678,0.000431,0.000353
43709000,0.0324,0.013523,0.002678,0.000431,0.000470
43710000,0.0324,0.013523,0.002678,0.000431,0.000353
43711000,0.0324,0.013523,0.002678,0.000431,0.000235
43712000,0.0324,0.013523,0.002678,0.000431,0.000353
43713000,0.0324,0.013523,0.002678,0.000431,0.000353
43714000,0.0324,0.013523,0.002678,0.000431,0.000235
43715000,0.0324,0.013523,0.002678,0.000431,0.000353
43716000,0.0324,0.013523,0.002678,0.000431,0.000470
43717000,0.0324,0.013523,0.002678,0.000431,0.000353
43718000,0.0324,0.013523,0.002678,0.000431,0.000235
43719000,0.0324,0.013523,0.002678,0.000431,0.000353
43720000,0.0324,0.013523,0.002678,0.000431,0.000353
43721000,0.0324,0.013523,0.002678,0.000431,0.000235
43722000,0.0324,0.013523,0.002678,0.000431,0.000353
43723000,0.0324,0.013523,0.002678,0.000431,0.000470
43724000,0.0324,0.013523,0.002678,0.000431,0.000353
43725000,0.0324,0.013523,0.002678,0.000431,0.000235
43726000,0.0324,0.013523,0.002678,0.000431,0.000353
43727000,0.0324,0.013523,0.002678,0.000431,0.000353
43728000,0.0324,0.013523,0.002678,0.000431,0.000235
43729000,0.0324,0.013523,0.002678,0.000431,0.000353
43730000,0.0324,0.013523,0.002678,0.000431,0.000470
43731000,0.0324,0.013523,0.002678,0.000431,0.000353
43732000,0.0324,0.013523,0.002678,0.000431,0.000235
43733000,0.0324,0.013523,0.002678,0.000431,0.000353
43734000,0.0324,0.013523,0.002678,0.000431,0.000353
43735000,0.0324,0.013523,0.002678,0.000431,0.000235
43736000,0.0324,0.013523,0.002678,0.000431,0.000353
43737000,0.0324,0.013523,0.002678,0.000431,0.000470
43738000,0.0324,0.013523,0.002678,0.000431,0.000353
43739000,0.0324,0.013523,0.002678,0.000431,0.000235
43740000,0.0324,0.013523,0.002678,0.000431,0.000353
43741000,0.0324,0.013523,0.002678,0.000431,0.000353
43742000,0.0324,0.013523,0.002678,0.000431,0.000235
43743000,0.0324,0.013523,0.002678,0.000431,0.000353
43744000,0.0324,0.013523,0.002678,0.000431,0.000470
43745000,0.0324,0.013523,0.002678,0.000431,0.000353
43746000,0.0324,0.013523,0.002678,0.000431,0.000235
43747000,0.0324,0.013523,0.002678,0.000431,0.000353
43748000,0.0324,0.013523,0.002678,0.000431,0.000353
43749000,0.0324,0.013523,0.002678,0.000431,0.000235
43750000,0.0324,0.013523,0.002678,0.000431,0.000353
43751000,0.0324,0.013523,0.002678,0.000431,0.000470
43752000,0.0324,0.013523,0.002678,0.000431,0.000353
43753000,0.0324,0.013523,0.002678,0.000431,0.000118
43754000,0.0324,0.013523,0.002678,0.000431,0.000470
43755000,0.0324,0.013523,0.002678,0.000431,0.000353
43756000,0.0324,0.013523,0.002678,0.000431,0.000235
43757000,0.0324,0.013523,0.002678,0.000431,0.000353
43758000,0.0324,0.013523,0.002678,0.000431,0.000470
43759000,0.0324,0.013523,0.002678,0.000431,0.000353
43760000,0.0324,0.013523,0.002678,0.000431,0.000118
43761000,0.0324,0.013523,0.002678,0.000431,0.000470
43762000,0.0324,0.013523,0.002678,0.000431,0.000353
43763000,0.0324,0.013523,0.002678,0.000431,0.000235
43764000,0.0324,0.013523,0.002678,0.000431,0.000353
43765000,0.0324,0.013523,0.002678,0.000431,0.000470
43766000,0.0324,0.013523,0.002678,0.000431,0.000353
43767000,0.0324,0.013523,0.002678,0.000431,0.000118
43768000,0.0324,0.013523,0.002678,0.000431,0.000470
43769000,0.0324,0.013523,0.002678,0.000431,0.000353
43770000,0.0324,0.013523,0.002678,0.000431,0.000235
43771000,0.0324,0.013523,0.002678,0.000431,0.000353
43772000,0.0324,0.013523,0.002678,0.000431,0.000470
43773000,0.0324,0.013523,0.002678,0.000431,0.000235
43774000,0.0324,0.013523,0.002678,0.000431,0.000235
43775000,0.0324,0.013523,0.002678,0.000431,0.000470
43776000,0.0324,0.013523,0.002678,0.000431,0.000353
43777000,0.0324,0.013523,0.002678,0.000431,0.000235
43778000,0.0324,0.013523,0.002678,0.000431,0.000353
43779000,0.0324,0.013523,0.002678,0.000431,0.000470
43780000,0.0324,0.013523,0.002678,0.000431,0.000235
43781000,0.0324,0.013523,0.002678,0.000431,0.000235
43782000,0.0324,0.013523,0.002678,0.000431,0.000470
43783000,0.0324,0.013523,0.002678,0.000431,0.000353
43784000,0.0324,0.013523,0.002678,0.000431,0.000235
43785000,0.0324,0.013523,0.002678,0.000431,0.000353
43786000,0.0324,0.013523,0.002678,0.000431,0.000470
43787000,0.0324,0.013523,0.002678,0.000431,0.000235
43788000,0.0324,0.013523,0.002678,0.000431,0.000235
43789000,0.0324,0.013523,0.002678,0.000431,0.000940
