Cycle,Area(mm^2),PeakDynamic(W),SubthresholdLeakage(W),GateLeakage(W),RunTimeDynamic(W)
129000000,0.0324,0.013523,0.002678,0.000431,0.003526
129001000,0.0324,0.013523,0.002678,0.000431,0.003761
129002000,0.0324,0.013523,0.002678,0.000431,0.004113
129003000,0.0324,0.013523,0.002678,0.000431,0.003408
129004000,0.0324,0.013523,0.002678,0.000431,0.006582
129005000,0.0324,0.013523,0.002678,0.000431,0.002703
129006000,0.0324,0.013523,0.002678,0.000431,0.003056
129007000,0.0324,0.013523,0.002678,0.000431,0.003173
129008000,0.0324,0.013523,0.002678,0.000431,0.002703
129009000,0.0324,0.013523,0.002678,0.000431,0.003056
129010000,0.0324,0.013523,0.002678,0.000431,0.002938
129011000,0.0324,0.013523,0.002678,0.000431,0.003056
129012000,0.0324,0.013523,0.002678,0.000431,0.003056
129013000,0.0324,0.013523,0.002678,0.000431,0.002938
129014000,0.0324,0.013523,0.002678,0.000431,0.003056
129015000,0.0324,0.013523,0.002678,0.000431,0.002938
129016000,0.0324,0.013523,0.002678,0.000431,0.002586
129017000,0.0324,0.013523,0.002678,0.000431,0.003526
129018000,0.0324,0.013523,0.002678,0.000431,0.002821
129019000,0.0324,0.013523,0.002678,0.000431,0.002821
129020000,0.0324,0.013523,0.002678,0.000431,0.003291
129021000,0.0324,0.013523,0.002678,0.000431,0.002468
129022000,0.0324,0.013523,0.002678,0.000431,0.003526
129023000,0.0324,0.013523,0.002678,0.000431,0.002586
129024000,0.0324,0.013523,0.002678,0.000431,0.003056
129025000,0.0324,0.013523,0.002678,0.000431,0.003408
129026000,0.0324,0.013523,0.002678,0.000431,0.002468
129027000,0.0324,0.013523,0.002678,0.000431,0.003526
129028000,0.0324,0.013523,0.002678,0.000431,0.002468
129029000,0.0324,0.013523,0.002678,0.000431,0.003173
129030000,0.0324,0.013523,0.002678,0.000431,0.003173
129031000,0.0324,0.013523,0.002678,0.000431,0.002586
129032000,0.0324,0.013523,0.002678,0.000431,0.003291
129033000,0.0324,0.013523,0.002678,0.000431,0.002586
129034000,0.0324,0.013523,0.002678,0.000431,0.003408
129035000,0.0324,0.013523,0.002678,0.000431,0.002821
129036000,0.0324,0.013523,0.002678,0.000431,0.002703
129037000,0.0324,0.013523,0.002678,0.000431,0.003526
129038000,0.0324,0.013523,0.002678,0.000431,0.002586
129039000,0.0324,0.013523,0.002678,0.000431,0.003056
129040000,0.0324,0.013523,0.002678,0.000431,0.003056
129041000,0.0324,0.013523,0.002678,0.000431,0.002586
129042000,0.0324,0.013523,0.002678,0.000431,0.003291
129043000,0.0324,0.013523,0.002678,0.000431,0.003056
129044000,0.0324,0.013523,0.002678,0.000431,0.002586
129045000,0.0324,0.013523,0.002678,0.000431,0.003526
129046000,0.0324,0.013523,0.002678,0.000431,0.002586
129047000,0.0324,0.013523,0.002678,0.000431,0.003173
129048000,0.0324,0.013523,0.002678,0.000431,0.002938
129049000,0.0324,0.013523,0.002678,0.000431,0.002703
129050000,0.0324,0.013523,0.002678,0.000431,0.003643
129051000,0.0324,0.013523,0.002678,0.000431,0.002233
129052000,0.0324,0.013523,0.002678,0.000431,0.003526
129053000,0.0324,0.013523,0.002678,0.000431,0.002938
129054000,0.0324,0.013523,0.002678,0.000431,0.002703
129055000,0.0324,0.013523,0.002678,0.000431,0.003408
129056000,0.0324,0.013523,0.002678,0.000431,0.002468
129057000,0.0324,0.013523,0.002678,0.000431,0.003291
129058000,0.0324,0.013523,0.002678,0.000431,0.002821
129059000,0.0324,0.013523,0.002678,0.000431,0.003056
129060000,0.0324,0.013523,0.002678,0.000431,0.003291
129061000,0.0324,0.013523,0.002678,0.000431,0.002586
129062000,0.0324,0.013523,0.002678,0.000431,0.003526
129063000,0.0324,0.013523,0.002678,0.000431,0.004466
129064000,0.0324,0.013523,0.002678,0.000431,0.002351
129065000,0.0324,0.013523,0.002678,0.000431,0.001763
129066000,0.0324,0.013523,0.002678,0.000431,0.000705
129067000,0.0324,0.013523,0.002678,0.000431,0.000940
129068000,0.0324,0.013523,0.002678,0.000431,0.000823
129069000,0.0324,0.013523,0.002678,0.000431,0.000823
129070000,0.0324,0.013523,0.002678,0.000431,0.000823
129071000,0.0324,0.013523,0.002678,0.000431,0.000823
129072000,0.0324,0.013523,0.002678,0.000431,0.000940
129073000,0.0324,0.013523,0.002678,0.000431,0.000705
129074000,0.0324,0.013523,0.002678,0.000431,0.000940
129075000,0.0324,0.013523,0.002678,0.000431,0.000823
129076000,0.0324,0.013523,0.002678,0.000431,0.000823
129077000,0.0324,0.013523,0.002678,0.000431,0.000823
129078000,0.0324,0.013523,0.002678,0.000431,0.000823
129079000,0.0324,0.013523,0.002678,0.000431,0.000940
129080000,0.0324,0.013523,0.002678,0.000431,0.000705
129081000,0.0324,0.013523,0.002678,0.000431,0.000940
129082000,0.0324,0.013523,0.002678,0.000431,0.000823
129083000,0.0324,0.013523,0.002678,0.000431,0.000823
129084000,0.0324,0.013523,0.002678,0.000431,0.000940
129085000,0.0324,0.013523,0.002678,0.000431,0.000823
129086000,0.0324,0.013523,0.002678,0.000431,0.000823
129087000,0.0324,0.013523,0.002678,0.000431,0.014456
129088000,0.0324,0.013523,0.002678,0.000431,0.470348
129089000,0.0324,0.013523,0.002678,0.000431,0.601979
129090000,0.0324,0.013523,0.002678,0.000431,0.133042
129091000,0.0324,0.013523,0.002678,0.000431,0.132572
129092000,0.0324,0.013523,0.002678,0.000431,0.317914
129093000,0.0324,0.013523,0.002678,0.000431,0.436265
129094000,0.0324,0.013523,0.002678,0.000431,0.220365
129095000,0.0324,0.013523,0.002678,0.000431,0.250923
129096000,0.0324,0.013523,0.002678,0.000431,0.218720
129097000,0.0324,0.013523,0.002678,0.000431,0.144677
129098000,0.0324,0.013523,0.002678,0.000431,0.153492
129099000,0.0324,0.013523,0.002678,0.000431,0.110712
129100000,0.0324,0.013523,0.002678,0.000431,0.385727
129101000,0.0324,0.013523,0.002678,0.000431,0.158428
129102000,0.0324,0.013523,0.002678,0.000431,0.003408
129103000,0.0324,0.013523,0.002678,0.000431,0.003291
129104000,0.0324,0.013523,0.002678,0.000431,0.003173
129105000,0.0324,0.013523,0.002678,0.000431,0.003291
129106000,0.0324,0.013523,0.002678,0.000431,0.003408
129107000,0.0324,0.013523,0.002678,0.000431,0.003408
129108000,0.0324,0.013523,0.002678,0.000431,0.003291
129109000,0.0324,0.013523,0.002678,0.000431,0.003173
129110000,0.0324,0.013523,0.002678,0.000431,0.003291
129111000,0.0324,0.013523,0.002678,0.000431,0.003526
129112000,0.0324,0.013523,0.002678,0.000431,0.003173
129113000,0.0324,0.013523,0.002678,0.000431,0.003526
129114000,0.0324,0.013523,0.002678,0.000431,0.003173
129115000,0.0324,0.013523,0.002678,0.000431,0.002938
129116000,0.0324,0.013523,0.002678,0.000431,0.002586
129117000,0.0324,0.013523,0.002678,0.000431,0.002586
129118000,0.0324,0.013523,0.002678,0.000431,0.002703
129119000,0.0324,0.013523,0.002678,0.000431,0.002351
129120000,0.0324,0.013523,0.002678,0.000431,0.002703
129121000,0.0324,0.013523,0.002678,0.000431,0.002703
129122000,0.0324,0.013523,0.002678,0.000431,0.002468
129123000,0.0324,0.013523,0.002678,0.000431,0.002586
129124000,0.0324,0.013523,0.002678,0.000431,0.002586
129125000,0.0324,0.013523,0.002678,0.000431,0.002821
129126000,0.0324,0.013523,0.002678,0.000431,0.002351
129127000,0.0324,0.013523,0.002678,0.000431,0.002703
129128000,0.0324,0.013523,0.002678,0.000431,0.002586
129129000,0.0324,0.013523,0.002678,0.000431,0.002586
129130000,0.0324,0.013523,0.002678,0.000431,0.002703
129131000,0.0324,0.013523,0.002678,0.000431,0.002468
129132000,0.0324,0.013523,0.002678,0.000431,0.002586
129133000,0.0324,0.013523,0.002678,0.000431,0.002703
129134000,0.0324,0.013523,0.002678,0.000431,0.002586
129135000,0.0324,0.013523,0.002678,0.000431,0.002351
129136000,0.0324,0.013523,0.002678,0.000431,0.002821
129137000,0.0324,0.013523,0.002678,0.000431,0.002703
129138000,0.0324,0.013523,0.002678,0.000431,0.002586
129139000,0.0324,0.013523,0.002678,0.000431,0.002233
129140000,0.0324,0.013523,0.002678,0.000431,0.002821
129141000,0.0324,0.013523,0.002678,0.000431,0.002703
129142000,0.0324,0.013523,0.002678,0.000431,0.003761
129143000,0.0324,0.013523,0.002678,0.000431,0.001645
129144000,0.0324,0.013523,0.002678,0.000431,0.001880
129145000,0.0324,0.013523,0.002678,0.000431,0.001645
129146000,0.0324,0.013523,0.002678,0.000431,0.001763
129147000,0.0324,0.013523,0.002678,0.000431,0.001763
129148000,0.0324,0.013523,0.002678,0.000431,0.001880
129149000,0.0324,0.013523,0.002678,0.000431,0.001645
129150000,0.0324,0.013523,0.002678,0.000431,0.001645
129151000,0.0324,0.013523,0.002678,0.000431,0.001880
129152000,0.0324,0.013523,0.002678,0.000431,0.001880
129153000,0.0324,0.013523,0.002678,0.000431,0.001528
129154000,0.0324,0.013523,0.002678,0.000431,0.001763
129155000,0.0324,0.013523,0.002678,0.000431,0.001880
129156000,0.0324,0.013523,0.002678,0.000431,0.001880
129157000,0.0324,0.013523,0.002678,0.000431,0.001528
129158000,0.0324,0.013523,0.002678,0.000431,0.001880
129159000,0.0324,0.013523,0.002678,0.000431,0.001763
129160000,0.0324,0.013523,0.002678,0.000431,0.001763
129161000,0.0324,0.013523,0.002678,0.000431,0.001880
129162000,0.0324,0.013523,0.002678,0.000431,0.001528
129163000,0.0324,0.013523,0.002678,0.000431,0.001880
129164000,0.0324,0.013523,0.002678,0.000431,0.001763
129165000,0.0324,0.013523,0.002678,0.000431,0.001763
129166000,0.0324,0.013523,0.002678,0.000431,0.001645
129167000,0.0324,0.013523,0.002678,0.000431,0.001880
129168000,0.0324,0.013523,0.002678,0.000431,0.001763
129169000,0.0324,0.013523,0.002678,0.000431,0.001645
129170000,0.0324,0.013523,0.002678,0.000431,0.001763
129171000,0.0324,0.013523,0.002678,0.000431,0.001880
129172000,0.0324,0.013523,0.002678,0.000431,0.001528
129173000,0.0324,0.013523,0.002678,0.000431,0.003526
129174000,0.0324,0.013523,0.002678,0.000431,0.000940
129175000,0.0324,0.013523,0.002678,0.000431,0.000940
129176000,0.0324,0.013523,0.002678,0.000431,0.000705
129177000,0.0324,0.013523,0.002678,0.000431,0.000940
129178000,0.0324,0.013523,0.002678,0.000431,0.000940
129179000,0.0324,0.013523,0.002678,0.000431,0.000823
129180000,0.0324,0.013523,0.002678,0.000431,0.000823
129181000,0.0324,0.013523,0.002678,0.000431,0.000940
129182000,0.0324,0.013523,0.002678,0.000431,0.000823
129183000,0.0324,0.013523,0.002678,0.000431,0.000940
129184000,0.0324,0.013523,0.002678,0.000431,0.000823
129185000,0.0324,0.013523,0.002678,0.000431,0.000940
129186000,0.0324,0.013523,0.002678,0.000431,0.000823
129187000,0.0324,0.013523,0.002678,0.000431,0.000823
129188000,0.0324,0.013523,0.002678,0.000431,0.000940
129189000,0.0324,0.013523,0.002678,0.000431,0.000940
129190000,0.0324,0.013523,0.002678,0.000431,0.000823
129191000,0.0324,0.013523,0.002678,0.000431,0.000823
129192000,0.0324,0.013523,0.002678,0.000431,0.000940
129193000,0.0324,0.013523,0.002678,0.000431,0.000940
129194000,0.0324,0.013523,0.002678,0.000431,0.000823
129195000,0.0324,0.013523,0.002678,0.000431,0.000823
129196000,0.0324,0.013523,0.002678,0.000431,0.000940
129197000,0.0324,0.013523,0.002678,0.000431,0.000940
129198000,0.0324,0.013523,0.002678,0.000431,0.000823
129199000,0.0324,0.013523,0.002678,0.000431,0.000823
129200000,0.0324,0.013523,0.002678,0.000431,0.000940
129201000,0.0324,0.013523,0.002678,0.000431,0.000823
129202000,0.0324,0.013523,0.002678,0.000431,0.000940
129203000,0.0324,0.013523,0.002678,0.000431,0.000823
129204000,0.0324,0.013523,0.002678,0.000431,0.000940
129205000,0.0324,0.013523,0.002678,0.000431,0.000823
129206000,0.0324,0.013523,0.002678,0.000431,0.000823
129207000,0.0324,0.013523,0.002678,0.000431,0.001645
129208000,0.0324,0.013523,0.002678,0.000431,0.304045
129209000,0.0324,0.013523,0.002678,0.000431,0.665915
129210000,0.0324,0.013523,0.002678,0.000431,0.143267
129211000,0.0324,0.013523,0.002678,0.000431,0.132102
129212000,0.0324,0.013523,0.002678,0.000431,0.133042
129213000,0.0324,0.013523,0.002678,0.000431,0.623487
129214000,0.0324,0.013523,0.002678,0.000431,0.258562
129215000,0.0324,0.013523,0.002678,0.000431,0.248572
129216000,0.0324,0.013523,0.002678,0.000431,0.264909
129217000,0.0324,0.013523,0.002678,0.000431,0.132924
129218000,0.0324,0.013523,0.002678,0.000431,0.141504
129219000,0.0324,0.013523,0.002678,0.000431,0.113767
129220000,0.0324,0.013523,0.002678,0.000431,0.367746
129221000,0.0324,0.013523,0.002678,0.000431,0.213079
129222000,0.0324,0.013523,0.002678,0.000431,0.034671
129223000,0.0324,0.013523,0.002678,0.000431,0.026444
129224000,0.0324,0.013523,0.002678,0.000431,0.017629
129225000,0.0324,0.013523,0.002678,0.000431,0.019392
129226000,0.0324,0.013523,0.002678,0.000431,0.014809
129227000,0.0324,0.013523,0.002678,0.000431,0.012105
129228000,0.0324,0.013523,0.002678,0.000431,0.011635
129229000,0.0324,0.013523,0.002678,0.000431,0.007287
129230000,0.0324,0.013523,0.002678,0.000431,0.005876
129231000,0.0324,0.013523,0.002678,0.000431,0.005524
129232000,0.0324,0.013523,0.002678,0.000431,0.006229
129233000,0.0324,0.013523,0.002678,0.000431,0.005289
129234000,0.0324,0.013523,0.002678,0.000431,0.006464
129235000,0.0324,0.013523,0.002678,0.000431,0.005876
129236000,0.0324,0.013523,0.002678,0.000431,0.005641
129237000,0.0324,0.013523,0.002678,0.000431,0.009050
129238000,0.0324,0.013523,0.002678,0.000431,0.003291
129239000,0.0324,0.013523,0.002678,0.000431,0.003643
129240000,0.0324,0.013523,0.002678,0.000431,0.003291
129241000,0.0324,0.013523,0.002678,0.000431,0.003526
129242000,0.0324,0.013523,0.002678,0.000431,0.003408
129243000,0.0324,0.013523,0.002678,0.000431,0.003291
129244000,0.0324,0.013523,0.002678,0.000431,0.003643
129245000,0.0324,0.013523,0.002678,0.000431,0.003173
129246000,0.0324,0.013523,0.002678,0.000431,0.005289
129247000,0.0324,0.013523,0.002678,0.000431,0.002468
129248000,0.0324,0.013523,0.002678,0.000431,0.002586
129249000,0.0324,0.013523,0.002678,0.000431,0.002586
129250000,0.0324,0.013523,0.002678,0.000431,0.002586
129251000,0.0324,0.013523,0.002678,0.000431,0.002586
129252000,0.0324,0.013523,0.002678,0.000431,0.002468
129253000,0.0324,0.013523,0.002678,0.000431,0.002821
129254000,0.0324,0.013523,0.002678,0.000431,0.002468
129255000,0.0324,0.013523,0.002678,0.000431,0.002586
129256000,0.0324,0.013523,0.002678,0.000431,0.002586
129257000,0.0324,0.013523,0.002678,0.000431,0.002586
129258000,0.0324,0.013523,0.002678,0.000431,0.002821
129259000,0.0324,0.013523,0.002678,0.000431,0.002351
129260000,0.0324,0.013523,0.002678,0.000431,0.002703
129261000,0.0324,0.013523,0.002678,0.000431,0.002586
129262000,0.0324,0.013523,0.002678,0.000431,0.002586
129263000,0.0324,0.013523,0.002678,0.000431,0.002586
129264000,0.0324,0.013523,0.002678,0.000431,0.002586
129265000,0.0324,0.013523,0.002678,0.000431,0.002703
129266000,0.0324,0.013523,0.002678,0.000431,0.002468
129267000,0.0324,0.013523,0.002678,0.000431,0.002586
129268000,0.0324,0.013523,0.002678,0.000431,0.002586
129269000,0.0324,0.013523,0.002678,0.000431,0.002703
129270000,0.0324,0.013523,0.002678,0.000431,0.002586
129271000,0.0324,0.013523,0.002678,0.000431,0.004819
129272000,0.0324,0.013523,0.002678,0.000431,0.001880
129273000,0.0324,0.013523,0.002678,0.000431,0.001880
129274000,0.0324,0.013523,0.002678,0.000431,0.001645
129275000,0.0324,0.013523,0.002678,0.000431,0.001763
129276000,0.0324,0.013523,0.002678,0.000431,0.001763
129277000,0.0324,0.013523,0.002678,0.000431,0.003056
129278000,0.0324,0.013523,0.002678,0.000431,0.000823
129279000,0.0324,0.013523,0.002678,0.000431,0.000823
129280000,0.0324,0.013523,0.002678,0.000431,0.000940
129281000,0.0324,0.013523,0.002678,0.000431,0.000823
129282000,0.0324,0.013523,0.002678,0.000431,0.000940
129283000,0.0324,0.013523,0.002678,0.000431,0.000823
129284000,0.0324,0.013523,0.002678,0.000431,0.000940
129285000,0.0324,0.013523,0.002678,0.000431,0.000823
129286000,0.0324,0.013523,0.002678,0.000431,0.000823
129287000,0.0324,0.013523,0.002678,0.000431,0.000940
129288000,0.0324,0.013523,0.002678,0.000431,0.000940
129289000,0.0324,0.013523,0.002678,0.000431,0.000940
129290000,0.0324,0.013523,0.002678,0.000431,0.000705
129291000,0.0324,0.013523,0.002678,0.000431,0.000940
129292000,0.0324,0.013523,0.002678,0.000431,0.000940
129293000,0.0324,0.013523,0.002678,0.000431,0.000823
129294000,0.0324,0.013523,0.002678,0.000431,0.000823
129295000,0.0324,0.013523,0.002678,0.000431,0.000940
129296000,0.0324,0.013523,0.002678,0.000431,0.000823
129297000,0.0324,0.013523,0.002678,0.000431,0.000940
129298000,0.0324,0.013523,0.002678,0.000431,0.000823
129299000,0.0324,0.013523,0.002678,0.000431,0.000940
129300000,0.0324,0.013523,0.002678,0.000431,0.000823
129301000,0.0324,0.013523,0.002678,0.000431,0.000823
129302000,0.0324,0.013523,0.002678,0.000431,0.000940
129303000,0.0324,0.013523,0.002678,0.000431,0.000940
129304000,0.0324,0.013523,0.002678,0.000431,0.000823
129305000,0.0324,0.013523,0.002678,0.000431,0.000823
129306000,0.0324,0.013523,0.002678,0.000431,0.000940
129307000,0.0324,0.013523,0.002678,0.000431,0.000940
129308000,0.0324,0.013523,0.002678,0.000431,0.002586
129309000,0.0324,0.013523,0.002678,0.000431,0.357521
129310000,0.0324,0.013523,0.002678,0.000431,0.676022
129311000,0.0324,0.013523,0.002678,0.000431,0.135392
129312000,0.0324,0.013523,0.002678,0.000431,0.133982
129313000,0.0324,0.013523,0.002678,0.000431,0.150319
129314000,0.0324,0.013523,0.002678,0.000431,0.647345
129315000,0.0324,0.013523,0.002678,0.000431,0.249160
129316000,0.0324,0.013523,0.002678,0.000431,0.247984
129317000,0.0324,0.013523,0.002678,0.000431,0.236819
129318000,0.0324,0.013523,0.002678,0.000431,0.137743
129319000,0.0324,0.013523,0.002678,0.000431,0.180406
129320000,0.0324,0.013523,0.002678,0.000431,0.085561
129321000,0.0324,0.013523,0.002678,0.000431,0.456479
129322000,0.0324,0.013523,0.002678,0.000431,0.044543
129323000,0.0324,0.013523,0.002678,0.000431,0.000940
129324000,0.0324,0.013523,0.002678,0.000431,0.000705
129325000,0.0324,0.013523,0.002678,0.000431,0.000940
129326000,0.0324,0.013523,0.002678,0.000431,0.000940
129327000,0.0324,0.013523,0.002678,0.000431,0.000705
129328000,0.0324,0.013523,0.002678,0.000431,0.000940
129329000,0.0324,0.013523,0.002678,0.000431,0.000705
129330000,0.0324,0.013523,0.002678,0.000431,0.000940
129331000,0.0324,0.013523,0.002678,0.000431,0.000823
129332000,0.0324,0.013523,0.002678,0.000431,0.000823
129333000,0.0324,0.013523,0.002678,0.000431,0.000823
129334000,0.0324,0.013523,0.002678,0.000431,0.000823
129335000,0.0324,0.013523,0.002678,0.000431,0.000940
129336000,0.0324,0.013523,0.002678,0.000431,0.000705
129337000,0.0324,0.013523,0.002678,0.000431,0.071105
129338000,0.0324,0.013523,0.002678,0.000431,0.408175
129339000,0.0324,0.013523,0.002678,0.000431,0.574948
129340000,0.0324,0.013523,0.002678,0.000431,0.131632
129341000,0.0324,0.013523,0.002678,0.000431,0.133982
129342000,0.0324,0.013523,0.002678,0.000431,0.522178
129343000,0.0324,0.013523,0.002678,0.000431,0.254801
129344000,0.0324,0.013523,0.002678,0.000431,0.233293
129345000,0.0324,0.013523,0.002678,0.000431,0.322262
129346000,0.0324,0.013523,0.002678,0.000431,0.191218
129347000,0.0324,0.013523,0.002678,0.000431,0.142092
129348000,0.0324,0.013523,0.002678,0.000431,0.155137
129349000,0.0324,0.013523,0.002678,0.000431,0.130221
129350000,0.0324,0.013523,0.002678,0.000431,0.447900
129351000,0.0324,0.013523,0.002678,0.000431,0.018569
129352000,0.0324,0.013523,0.002678,0.000431,0.011870
129353000,0.0324,0.013523,0.002678,0.000431,0.011870
129354000,0.0324,0.013523,0.002678,0.000431,0.010813
129355000,0.0324,0.013523,0.002678,0.000431,0.010460
129356000,0.0324,0.013523,0.002678,0.000431,0.009167
129357000,0.0324,0.013523,0.002678,0.000431,0.007639
129358000,0.0324,0.013523,0.002678,0.000431,0.008345
129359000,0.0324,0.013523,0.002678,0.000431,0.008697
129360000,0.0324,0.013523,0.002678,0.000431,0.006347
129361000,0.0324,0.013523,0.002678,0.000431,0.007287
129362000,0.0324,0.013523,0.002678,0.000431,0.006817
129363000,0.0324,0.013523,0.002678,0.000431,0.007757
129364000,0.0324,0.013523,0.002678,0.000431,0.003408
129365000,0.0324,0.013523,0.002678,0.000431,0.003056
129366000,0.0324,0.013523,0.002678,0.000431,0.003526
129367000,0.0324,0.013523,0.002678,0.000431,0.003408
129368000,0.0324,0.013523,0.002678,0.000431,0.004113
129369000,0.0324,0.013523,0.002678,0.000431,0.004231
129370000,0.0324,0.013523,0.002678,0.000431,0.001645
129371000,0.0324,0.013523,0.002678,0.000431,0.001880
129372000,0.0324,0.013523,0.002678,0.000431,0.001645
129373000,0.0324,0.013523,0.002678,0.000431,0.001410
129374000,0.0324,0.013523,0.002678,0.000431,0.001763
129375000,0.0324,0.013523,0.002678,0.000431,0.001763
129376000,0.0324,0.013523,0.002678,0.000431,0.001528
129377000,0.0324,0.013523,0.002678,0.000431,0.001528
129378000,0.0324,0.013523,0.002678,0.000431,0.001880
129379000,0.0324,0.013523,0.002678,0.000431,0.001645
129380000,0.0324,0.013523,0.002678,0.000431,0.001410
129381000,0.0324,0.013523,0.002678,0.000431,0.001880
129382000,0.0324,0.013523,0.002678,0.000431,0.001645
129383000,0.0324,0.013523,0.002678,0.000431,0.001645
129384000,0.0324,0.013523,0.002678,0.000431,0.001410
129385000,0.0324,0.013523,0.002678,0.000431,0.001880
129386000,0.0324,0.013523,0.002678,0.000431,0.001645
129387000,0.0324,0.013523,0.002678,0.000431,0.001645
129388000,0.0324,0.013523,0.002678,0.000431,0.001645
129389000,0.0324,0.013523,0.002678,0.000431,0.001645
129390000,0.0324,0.013523,0.002678,0.000431,0.001645
129391000,0.0324,0.013523,0.002678,0.000431,0.001528
129392000,0.0324,0.013523,0.002678,0.000431,0.001763
129393000,0.0324,0.013523,0.002678,0.000431,0.001645
129394000,0.0324,0.013523,0.002678,0.000431,0.001645
129395000,0.0324,0.013523,0.002678,0.000431,0.001645
129396000,0.0324,0.013523,0.002678,0.000431,0.001645
129397000,0.0324,0.013523,0.002678,0.000431,0.001645
129398000,0.0324,0.013523,0.002678,0.000431,0.001645
129399000,0.0324,0.013523,0.002678,0.000431,0.001645
129400000,0.0324,0.013523,0.002678,0.000431,0.001880
129401000,0.0324,0.013523,0.002678,0.000431,0.001410
129402000,0.0324,0.013523,0.002678,0.000431,0.001645
129403000,0.0324,0.013523,0.002678,0.000431,0.001763
129404000,0.0324,0.013523,0.002678,0.000431,0.001763
129405000,0.0324,0.013523,0.002678,0.000431,0.001410
129406000,0.0324,0.013523,0.002678,0.000431,0.001645
129407000,0.0324,0.013523,0.002678,0.000431,0.001880
129408000,0.0324,0.013523,0.002678,0.000431,0.001410
129409000,0.0324,0.013523,0.002678,0.000431,0.001645
129410000,0.0324,0.013523,0.002678,0.000431,0.001880
129411000,0.0324,0.013523,0.002678,0.000431,0.001645
129412000,0.0324,0.013523,0.002678,0.000431,0.001410
129413000,0.0324,0.013523,0.002678,0.000431,0.001645
129414000,0.0324,0.013523,0.002678,0.000431,0.001880
129415000,0.0324,0.013523,0.002678,0.000431,0.001645
129416000,0.0324,0.013523,0.002678,0.000431,0.001410
129417000,0.0324,0.013523,0.002678,0.000431,0.001880
129418000,0.0324,0.013523,0.002678,0.000431,0.001645
129419000,0.0324,0.013523,0.002678,0.000431,0.001645
129420000,0.0324,0.013523,0.002678,0.000431,0.001528
129421000,0.0324,0.013523,0.002678,0.000431,0.001763
129422000,0.0324,0.013523,0.002678,0.000431,0.001645
129423000,0.0324,0.013523,0.002678,0.000431,0.001645
129424000,0.0324,0.013523,0.002678,0.000431,0.001645
129425000,0.0324,0.013523,0.002678,0.000431,0.001645
129426000,0.0324,0.013523,0.002678,0.000431,0.001645
129427000,0.0324,0.013523,0.002678,0.000431,0.001645
129428000,0.0324,0.013523,0.002678,0.000431,0.001645
129429000,0.0324,0.013523,0.002678,0.000431,0.001645
129430000,0.0324,0.013523,0.002678,0.000431,0.001645
129431000,0.0324,0.013523,0.002678,0.000431,0.001645
129432000,0.0324,0.013523,0.002678,0.000431,0.001763
129433000,0.0324,0.013523,0.002678,0.000431,0.001528
129434000,0.0324,0.013523,0.002678,0.000431,0.001645
129435000,0.0324,0.013523,0.002678,0.000431,0.001645
129436000,0.0324,0.013523,0.002678,0.000431,0.001880
129437000,0.0324,0.013523,0.002678,0.000431,0.001293
129438000,0.0324,0.013523,0.002678,0.000431,0.001763
129439000,0.0324,0.013523,0.002678,0.000431,0.001880
129440000,0.0324,0.013523,0.002678,0.000431,0.001410
129441000,0.0324,0.013523,0.002678,0.000431,0.001645
129442000,0.0324,0.013523,0.002678,0.000431,0.001645
129443000,0.0324,0.013523,0.002678,0.000431,0.001880
129444000,0.0324,0.013523,0.002678,0.000431,0.001410
129445000,0.0324,0.013523,0.002678,0.000431,0.001645
129446000,0.0324,0.013523,0.002678,0.000431,0.001880
129447000,0.0324,0.013523,0.002678,0.000431,0.001645
129448000,0.0324,0.013523,0.002678,0.000431,0.001410
129449000,0.0324,0.013523,0.002678,0.000431,0.001763
129450000,0.0324,0.013523,0.002678,0.000431,0.001763
129451000,0.0324,0.013523,0.002678,0.000431,0.001645
129452000,0.0324,0.013523,0.002678,0.000431,0.001410
129453000,0.0324,0.013523,0.002678,0.000431,0.001880
129454000,0.0324,0.013523,0.002678,0.000431,0.001645
129455000,0.0324,0.013523,0.002678,0.000431,0.001645
129456000,0.0324,0.013523,0.002678,0.000431,0.001645
129457000,0.0324,0.013523,0.002678,0.000431,0.001645
129458000,0.0324,0.013523,0.002678,0.000431,0.001645
129459000,0.0324,0.013523,0.002678,0.000431,0.001410
129460000,0.0324,0.013523,0.002678,0.000431,0.001880
129461000,0.0324,0.013523,0.002678,0.000431,0.001645
129462000,0.0324,0.013523,0.002678,0.000431,0.001645
129463000,0.0324,0.013523,0.002678,0.000431,0.001645
129464000,0.0324,0.013523,0.002678,0.000431,0.001645
129465000,0.0324,0.013523,0.002678,0.000431,0.001645
129466000,0.0324,0.013523,0.002678,0.000431,0.001528
129467000,0.0324,0.013523,0.002678,0.000431,0.001763
129468000,0.0324,0.013523,0.002678,0.000431,0.001763
129469000,0.0324,0.013523,0.002678,0.000431,0.001528
129470000,0.0324,0.013523,0.002678,0.000431,0.001645
129471000,0.0324,0.013523,0.002678,0.000431,0.001645
129472000,0.0324,0.013523,0.002678,0.000431,0.001645
129473000,0.0324,0.013523,0.002678,0.000431,0.001645
129474000,0.0324,0.013523,0.002678,0.000431,0.001645
129475000,0.0324,0.013523,0.002678,0.000431,0.001880
129476000,0.0324,0.013523,0.002678,0.000431,0.001410
129477000,0.0324,0.013523,0.002678,0.000431,0.001645
129478000,0.0324,0.013523,0.002678,0.000431,0.001763
129479000,0.0324,0.013523,0.002678,0.000431,0.001763
129480000,0.0324,0.013523,0.002678,0.000431,0.001410
129481000,0.0324,0.013523,0.002678,0.000431,0.186400
129482000,0.0324,0.013523,0.002678,0.000431,0.531933
129483000,0.0324,0.013523,0.002678,0.000431,0.398185
129484000,0.0324,0.013523,0.002678,0.000431,0.130691
129485000,0.0324,0.013523,0.002678,0.000431,0.131632
129486000,0.0324,0.013523,0.002678,0.000431,0.668735
129487000,0.0324,0.013523,0.002678,0.000431,0.239405
129488000,0.0324,0.013523,0.002678,0.000431,0.265144
129489000,0.0324,0.013523,0.002678,0.000431,0.289237
129490000,0.0324,0.013523,0.002678,0.000431,0.142679
129491000,0.0324,0.013523,0.002678,0.000431,0.166537
129492000,0.0324,0.013523,0.002678,0.000431,0.089909
129493000,0.0324,0.013523,0.002678,0.000431,0.471876
129494000,0.0324,0.013523,0.002678,0.000431,0.125403
129495000,0.0324,0.013523,0.002678,0.000431,0.086736
129496000,0.0324,0.013523,0.002678,0.000431,0.070282
129497000,0.0324,0.013523,0.002678,0.000431,0.059352
129498000,0.0324,0.013523,0.002678,0.000431,0.052183
129499000,0.0324,0.013523,0.002678,0.000431,0.046776
129500000,0.0324,0.013523,0.002678,0.000431,0.049127
129501000,0.0324,0.013523,0.002678,0.000431,0.041840
129502000,0.0324,0.013523,0.002678,0.000431,0.041135
129503000,0.0324,0.013523,0.002678,0.000431,0.044778
129504000,0.0324,0.013523,0.002678,0.000431,0.031027
129505000,0.0324,0.013523,0.002678,0.000431,0.030675
129506000,0.0324,0.013523,0.002678,0.000431,0.028677
129507000,0.0324,0.013523,0.002678,0.000431,0.026326
129508000,0.0324,0.013523,0.002678,0.000431,0.026444
129509000,0.0324,0.013523,0.002678,0.000431,0.025856
129510000,0.0324,0.013523,0.002678,0.000431,0.024093
129511000,0.0324,0.013523,0.002678,0.000431,0.025739
129512000,0.0324,0.013523,0.002678,0.000431,0.029382
129513000,0.0324,0.013523,0.002678,0.000431,0.021743
129514000,0.0324,0.013523,0.002678,0.000431,0.021155
129515000,0.0324,0.013523,0.002678,0.000431,0.023623
129516000,0.0324,0.013523,0.002678,0.000431,0.020215
129517000,0.0324,0.013523,0.002678,0.000431,0.020097
129518000,0.0324,0.013523,0.002678,0.000431,0.016571
129519000,0.0324,0.013523,0.002678,0.000431,0.016807
129520000,0.0324,0.013523,0.002678,0.000431,0.017864
129521000,0.0324,0.013523,0.002678,0.000431,0.017394
129522000,0.0324,0.013523,0.002678,0.000431,0.015514
129523000,0.0324,0.013523,0.002678,0.000431,0.014691
129524000,0.0324,0.013523,0.002678,0.000431,0.015514
129525000,0.0324,0.013523,0.002678,0.000431,0.015044
129526000,0.0324,0.013523,0.002678,0.000431,0.013398
129527000,0.0324,0.013523,0.002678,0.000431,0.013398
129528000,0.0324,0.013523,0.002678,0.000431,0.015631
129529000,0.0324,0.013523,0.002678,0.000431,0.012928
129530000,0.0324,0.013523,0.002678,0.000431,0.014691
129531000,0.0324,0.013523,0.002678,0.000431,0.012105
129532000,0.0324,0.013523,0.002678,0.000431,0.011635
129533000,0.0324,0.013523,0.002678,0.000431,0.011870
129534000,0.0324,0.013523,0.002678,0.000431,0.011870
129535000,0.0324,0.013523,0.002678,0.000431,0.009167
129536000,0.0324,0.013523,0.002678,0.000431,0.009520
129537000,0.0324,0.013523,0.002678,0.000431,0.008345
129538000,0.0324,0.013523,0.002678,0.000431,0.009637
129539000,0.0324,0.013523,0.002678,0.000431,0.009285
129540000,0.0324,0.013523,0.002678,0.000431,0.009050
129541000,0.0324,0.013523,0.002678,0.000431,0.009402
129542000,0.0324,0.013523,0.002678,0.000431,0.008462
129543000,0.0324,0.013523,0.002678,0.000431,0.009402
129544000,0.0324,0.013523,0.002678,0.000431,0.010930
129545000,0.0324,0.013523,0.002678,0.000431,0.006817
129546000,0.0324,0.013523,0.002678,0.000431,0.009285
129547000,0.0324,0.013523,0.002678,0.000431,0.005641
129548000,0.0324,0.013523,0.002678,0.000431,0.007404
129549000,0.0324,0.013523,0.002678,0.000431,0.005524
129550000,0.0324,0.013523,0.002678,0.000431,0.005289
129551000,0.0324,0.013523,0.002678,0.000431,0.004819
129552000,0.0324,0.013523,0.002678,0.000431,0.004936
129553000,0.0324,0.013523,0.002678,0.000431,0.005171
129554000,0.0324,0.013523,0.002678,0.000431,0.005406
129555000,0.0324,0.013523,0.002678,0.000431,0.005406
129556000,0.0324,0.013523,0.002678,0.000431,0.004349
129557000,0.0324,0.013523,0.002678,0.000431,0.004231
129558000,0.0324,0.013523,0.002678,0.000431,0.004231
129559000,0.0324,0.013523,0.002678,0.000431,0.005876
129560000,0.0324,0.013523,0.002678,0.000431,0.003408
129561000,0.0324,0.013523,0.002678,0.000431,0.003408
129562000,0.0324,0.013523,0.002678,0.000431,0.003526
129563000,0.0324,0.013523,0.002678,0.000431,0.003291
129564000,0.0324,0.013523,0.002678,0.000431,0.003173
129565000,0.0324,0.013523,0.002678,0.000431,0.003643
129566000,0.0324,0.013523,0.002678,0.000431,0.003408
129567000,0.0324,0.013523,0.002678,0.000431,0.002938
129568000,0.0324,0.013523,0.002678,0.000431,0.003526
129569000,0.0324,0.013523,0.002678,0.000431,0.003643
129570000,0.0324,0.013523,0.002678,0.000431,0.003056
129571000,0.0324,0.013523,0.002678,0.000431,0.003291
129572000,0.0324,0.013523,0.002678,0.000431,0.003526
129573000,0.0324,0.013523,0.002678,0.000431,0.003526
129574000,0.0324,0.013523,0.002678,0.000431,0.003056
129575000,0.0324,0.013523,0.002678,0.000431,0.003291
129576000,0.0324,0.013523,0.002678,0.000431,0.003761
129577000,0.0324,0.013523,0.002678,0.000431,0.003291
129578000,0.0324,0.013523,0.002678,0.000431,0.003056
129579000,0.0324,0.013523,0.002678,0.000431,0.003761
129580000,0.0324,0.013523,0.002678,0.000431,0.003291
129581000,0.0324,0.013523,0.002678,0.000431,0.003408
129582000,0.0324,0.013523,0.002678,0.000431,0.003056
129583000,0.0324,0.013523,0.002678,0.000431,0.003643
129584000,0.0324,0.013523,0.002678,0.000431,0.003291
129585000,0.0324,0.013523,0.002678,0.000431,0.003408
129586000,0.0324,0.013523,0.002678,0.000431,0.004584
129587000,0.0324,0.013523,0.002678,0.000431,0.002468
129588000,0.0324,0.013523,0.002678,0.000431,0.002586
129589000,0.0324,0.013523,0.002678,0.000431,0.002351
129590000,0.0324,0.013523,0.002678,0.000431,0.002586
129591000,0.0324,0.013523,0.002678,0.000431,0.002468
129592000,0.0324,0.013523,0.002678,0.000431,0.002468
129593000,0.0324,0.013523,0.002678,0.000431,0.002233
129594000,0.0324,0.013523,0.002678,0.000431,0.002703
129595000,0.0324,0.013523,0.002678,0.000431,0.002468
129596000,0.0324,0.013523,0.002678,0.000431,0.002468
129597000,0.0324,0.013523,0.002678,0.000431,0.002586
129598000,0.0324,0.013523,0.002678,0.000431,0.002351
129599000,0.0324,0.013523,0.002678,0.000431,0.002586
129600000,0.0324,0.013523,0.002678,0.000431,0.002351
129601000,0.0324,0.013523,0.002678,0.000431,0.003408
129602000,0.0324,0.013523,0.002678,0.000431,0.002938
129603000,0.0324,0.013523,0.002678,0.000431,0.001528
129604000,0.0324,0.013523,0.002678,0.000431,0.001645
129605000,0.0324,0.013523,0.002678,0.000431,0.001645
129606000,0.0324,0.013523,0.002678,0.000431,0.001645
129607000,0.0324,0.013523,0.002678,0.000431,0.001528
129608000,0.0324,0.013523,0.002678,0.000431,0.001763
129609000,0.0324,0.013523,0.002678,0.000431,0.001880
129610000,0.0324,0.013523,0.002678,0.000431,0.001410
129611000,0.0324,0.013523,0.002678,0.000431,0.001645
129612000,0.0324,0.013523,0.002678,0.000431,0.001645
129613000,0.0324,0.013523,0.002678,0.000431,0.001880
129614000,0.0324,0.013523,0.002678,0.000431,0.001410
129615000,0.0324,0.013523,0.002678,0.000431,0.001645
129616000,0.0324,0.013523,0.002678,0.000431,0.001880
129617000,0.0324,0.013523,0.002678,0.000431,0.001528
129618000,0.0324,0.013523,0.002678,0.000431,0.001528
129619000,0.0324,0.013523,0.002678,0.000431,0.001763
129620000,0.0324,0.013523,0.002678,0.000431,0.001763
129621000,0.0324,0.013523,0.002678,0.000431,0.001410
129622000,0.0324,0.013523,0.002678,0.000431,0.001645
129623000,0.0324,0.013523,0.002678,0.000431,0.001880
129624000,0.0324,0.013523,0.002678,0.000431,0.001645
129625000,0.0324,0.013523,0.002678,0.000431,0.001410
129626000,0.0324,0.013523,0.002678,0.000431,0.001880
129627000,0.0324,0.013523,0.002678,0.000431,0.001645
129628000,0.0324,0.013523,0.002678,0.000431,0.001645
129629000,0.0324,0.013523,0.002678,0.000431,0.001410
129630000,0.0324,0.013523,0.002678,0.000431,0.001880
129631000,0.0324,0.013523,0.002678,0.000431,0.001645
129632000,0.0324,0.013523,0.002678,0.000431,0.001645
129633000,0.0324,0.013523,0.002678,0.000431,0.001645
129634000,0.0324,0.013523,0.002678,0.000431,0.001645
129635000,0.0324,0.013523,0.002678,0.000431,0.001645
129636000,0.0324,0.013523,0.002678,0.000431,0.001528
129637000,0.0324,0.013523,0.002678,0.000431,0.001763
129638000,0.0324,0.013523,0.002678,0.000431,0.001645
129639000,0.0324,0.013523,0.002678,0.000431,0.001645
129640000,0.0324,0.013523,0.002678,0.000431,0.001645
129641000,0.0324,0.013523,0.002678,0.000431,0.001645
129642000,0.0324,0.013523,0.002678,0.000431,0.001645
129643000,0.0324,0.013523,0.002678,0.000431,0.001645
129644000,0.0324,0.013523,0.002678,0.000431,0.001645
129645000,0.0324,0.013523,0.002678,0.000431,0.001880
129646000,0.0324,0.013523,0.002678,0.000431,0.001410
129647000,0.0324,0.013523,0.002678,0.000431,0.001645
129648000,0.0324,0.013523,0.002678,0.000431,0.001763
129649000,0.0324,0.013523,0.002678,0.000431,0.001528
129650000,0.0324,0.013523,0.002678,0.000431,0.001645
129651000,0.0324,0.013523,0.002678,0.000431,0.001645
129652000,0.0324,0.013523,0.002678,0.000431,0.001880
129653000,0.0324,0.013523,0.002678,0.000431,0.001410
129654000,0.0324,0.013523,0.002678,0.000431,0.001645
129655000,0.0324,0.013523,0.002678,0.000431,0.001880
129656000,0.0324,0.013523,0.002678,0.000431,0.001645
129657000,0.0324,0.013523,0.002678,0.000431,0.001410
129658000,0.0324,0.013523,0.002678,0.000431,0.001645
129659000,0.0324,0.013523,0.002678,0.000431,0.001880
129660000,0.0324,0.013523,0.002678,0.000431,0.001645
129661000,0.0324,0.013523,0.002678,0.000431,0.001410
129662000,0.0324,0.013523,0.002678,0.000431,0.001645
129663000,0.0324,0.013523,0.002678,0.000431,0.001645
129664000,0.0324,0.013523,0.002678,0.000431,0.203559
129665000,0.0324,0.013523,0.002678,0.000431,0.507487
129666000,0.0324,0.013523,0.002678,0.000431,0.491033
129667000,0.0324,0.013523,0.002678,0.000431,0.133042
129668000,0.0324,0.013523,0.002678,0.000431,0.132572
129669000,0.0324,0.013523,0.002678,0.000431,0.558847
129670000,0.0324,0.013523,0.002678,0.000431,0.240815
129671000,0.0324,0.013523,0.002678,0.000431,0.242578
129672000,0.0324,0.013523,0.002678,0.000431,0.296641
129673000,0.0324,0.013523,0.002678,0.000431,0.145030
129674000,0.0324,0.013523,0.002678,0.000431,0.153492
129675000,0.0324,0.013523,0.002678,0.000431,0.113767
129676000,0.0324,0.013523,0.002678,0.000431,0.392897
129677000,0.0324,0.013523,0.002678,0.000431,0.189338
129678000,0.0324,0.013523,0.002678,0.000431,0.042780
129679000,0.0324,0.013523,0.002678,0.000431,0.033260
129680000,0.0324,0.013523,0.002678,0.000431,0.029265
129681000,0.0324,0.013523,0.002678,0.000431,0.027619
129682000,0.0324,0.013523,0.002678,0.000431,0.023623
129683000,0.0324,0.013523,0.002678,0.000431,0.022565
129684000,0.0324,0.013523,0.002678,0.000431,0.023506
129685000,0.0324,0.013523,0.002678,0.000431,0.025034
129686000,0.0324,0.013523,0.002678,0.000431,0.017982
129687000,0.0324,0.013523,0.002678,0.000431,0.013986
129688000,0.0324,0.013523,0.002678,0.000431,0.014103
129689000,0.0324,0.013523,0.002678,0.000431,0.013751
129690000,0.0324,0.013523,0.002678,0.000431,0.015279
129691000,0.0324,0.013523,0.002678,0.000431,0.012576
129692000,0.0324,0.013523,0.002678,0.000431,0.013633
129693000,0.0324,0.013523,0.002678,0.000431,0.013281
129694000,0.0324,0.013523,0.002678,0.000431,0.009990
129695000,0.0324,0.013523,0.002678,0.000431,0.009755
129696000,0.0324,0.013523,0.002678,0.000431,0.011753
129697000,0.0324,0.013523,0.002678,0.000431,0.009402
129698000,0.0324,0.013523,0.002678,0.000431,0.009637
129699000,0.0324,0.013523,0.002678,0.000431,0.009637
129700000,0.0324,0.013523,0.002678,0.000431,0.007757
129701000,0.0324,0.013523,0.002678,0.000431,0.008697
129702000,0.0324,0.013523,0.002678,0.000431,0.008109
129703000,0.0324,0.013523,0.002678,0.000431,0.009050
129704000,0.0324,0.013523,0.002678,0.000431,0.007992
129705000,0.0324,0.013523,0.002678,0.000431,0.009402
129706000,0.0324,0.013523,0.002678,0.000431,0.006229
129707000,0.0324,0.013523,0.002678,0.000431,0.008462
129708000,0.0324,0.013523,0.002678,0.000431,0.005641
129709000,0.0324,0.013523,0.002678,0.000431,0.005641
129710000,0.0324,0.013523,0.002678,0.000431,0.005171
129711000,0.0324,0.013523,0.002678,0.000431,0.005876
129712000,0.0324,0.013523,0.002678,0.000431,0.005641
129713000,0.0324,0.013523,0.002678,0.000431,0.005524
129714000,0.0324,0.013523,0.002678,0.000431,0.005289
129715000,0.0324,0.013523,0.002678,0.000431,0.005759
129716000,0.0324,0.013523,0.002678,0.000431,0.005054
129717000,0.0324,0.013523,0.002678,0.000431,0.006111
129718000,0.0324,0.013523,0.002678,0.000431,0.004936
129719000,0.0324,0.013523,0.002678,0.000431,0.005641
129720000,0.0324,0.013523,0.002678,0.000431,0.005641
129721000,0.0324,0.013523,0.002678,0.000431,0.005641
129722000,0.0324,0.013523,0.002678,0.000431,0.005406
129723000,0.0324,0.013523,0.002678,0.000431,0.005406
129724000,0.0324,0.013523,0.002678,0.000431,0.005524
129725000,0.0324,0.013523,0.002678,0.000431,0.008227
129726000,0.0324,0.013523,0.002678,0.000431,0.005759
129727000,0.0324,0.013523,0.002678,0.000431,0.003173
129728000,0.0324,0.013523,0.002678,0.000431,0.002821
129729000,0.0324,0.013523,0.002678,0.000431,0.003291
129730000,0.0324,0.013523,0.002678,0.000431,0.003291
129731000,0.0324,0.013523,0.002678,0.000431,0.002233
129732000,0.0324,0.013523,0.002678,0.000431,0.002468
129733000,0.0324,0.013523,0.002678,0.000431,0.002586
129734000,0.0324,0.013523,0.002678,0.000431,0.001645
129735000,0.0324,0.013523,0.002678,0.000431,0.001645
129736000,0.0324,0.013523,0.002678,0.000431,0.001880
129737000,0.0324,0.013523,0.002678,0.000431,0.001645
129738000,0.0324,0.013523,0.002678,0.000431,0.001880
129739000,0.0324,0.013523,0.002678,0.000431,0.001528
129740000,0.0324,0.013523,0.002678,0.000431,0.001763
129741000,0.0324,0.013523,0.002678,0.000431,0.001880
129742000,0.0324,0.013523,0.002678,0.000431,0.001528
129743000,0.0324,0.013523,0.002678,0.000431,0.001880
129744000,0.0324,0.013523,0.002678,0.000431,0.001528
129745000,0.0324,0.013523,0.002678,0.000431,0.001880
129746000,0.0324,0.013523,0.002678,0.000431,0.001645
129747000,0.0324,0.013523,0.002678,0.000431,0.001645
129748000,0.0324,0.013523,0.002678,0.000431,0.001763
129749000,0.0324,0.013523,0.002678,0.000431,0.001763
129750000,0.0324,0.013523,0.002678,0.000431,0.001645
129751000,0.0324,0.013523,0.002678,0.000431,0.001645
129752000,0.0324,0.013523,0.002678,0.000431,0.001880
129753000,0.0324,0.013523,0.002678,0.000431,0.001763
129754000,0.0324,0.013523,0.002678,0.000431,0.001528
129755000,0.0324,0.013523,0.002678,0.000431,0.001763
129756000,0.0324,0.013523,0.002678,0.000431,0.001763
129757000,0.0324,0.013523,0.002678,0.000431,0.001645
129758000,0.0324,0.013523,0.002678,0.000431,0.001645
129759000,0.0324,0.013523,0.002678,0.000431,0.001880
129760000,0.0324,0.013523,0.002678,0.000431,0.001763
129761000,0.0324,0.013523,0.002678,0.000431,0.001645
129762000,0.0324,0.013523,0.002678,0.000431,0.001528
129763000,0.0324,0.013523,0.002678,0.000431,0.001880
129764000,0.0324,0.013523,0.002678,0.000431,0.001763
129765000,0.0324,0.013523,0.002678,0.000431,0.001645
129766000,0.0324,0.013523,0.002678,0.000431,0.001763
129767000,0.0324,0.013523,0.002678,0.000431,0.001645
129768000,0.0324,0.013523,0.002678,0.000431,0.001763
129769000,0.0324,0.013523,0.002678,0.000431,0.001645
129770000,0.0324,0.013523,0.002678,0.000431,0.001763
129771000,0.0324,0.013523,0.002678,0.000431,0.001763
129772000,0.0324,0.013523,0.002678,0.000431,0.001763
129773000,0.0324,0.013523,0.002678,0.000431,0.001645
129774000,0.0324,0.013523,0.002678,0.000431,0.001645
129775000,0.0324,0.013523,0.002678,0.000431,0.001880
129776000,0.0324,0.013523,0.002678,0.000431,0.001645
129777000,0.0324,0.013523,0.002678,0.000431,0.001645
129778000,0.0324,0.013523,0.002678,0.000431,0.001763
129779000,0.0324,0.013523,0.002678,0.000431,0.001763
129780000,0.0324,0.013523,0.002678,0.000431,0.001763
129781000,0.0324,0.013523,0.002678,0.000431,0.001528
129782000,0.0324,0.013523,0.002678,0.000431,0.001763
129783000,0.0324,0.013523,0.002678,0.000431,0.001645
129784000,0.0324,0.013523,0.002678,0.000431,0.001880
129785000,0.0324,0.013523,0.002678,0.000431,0.001645
129786000,0.0324,0.013523,0.002678,0.000431,0.001763
129787000,0.0324,0.013523,0.002678,0.000431,0.001528
129788000,0.0324,0.013523,0.002678,0.000431,0.001763
129789000,0.0324,0.013523,0.002678,0.000431,0.001880
129790000,0.0324,0.013523,0.002678,0.000431,0.001645
129791000,0.0324,0.013523,0.002678,0.000431,0.001763
129792000,0.0324,0.013523,0.002678,0.000431,0.001528
129793000,0.0324,0.013523,0.002678,0.000431,0.001880
129794000,0.0324,0.013523,0.002678,0.000431,0.001763
129795000,0.0324,0.013523,0.002678,0.000431,0.001645
129796000,0.0324,0.013523,0.002678,0.000431,0.001763
129797000,0.0324,0.013523,0.002678,0.000431,0.001645
129798000,0.0324,0.013523,0.002678,0.000431,0.001763
129799000,0.0324,0.013523,0.002678,0.000431,0.001763
129800000,0.0324,0.013523,0.002678,0.000431,0.001645
129801000,0.0324,0.013523,0.002678,0.000431,0.001763
129802000,0.0324,0.013523,0.002678,0.000431,0.001645
129803000,0.0324,0.013523,0.002678,0.000431,0.001645
129804000,0.0324,0.013523,0.002678,0.000431,0.001763
129805000,0.0324,0.013523,0.002678,0.000431,0.001880
129806000,0.0324,0.013523,0.002678,0.000431,0.001528
129807000,0.0324,0.013523,0.002678,0.000431,0.001763
129808000,0.0324,0.013523,0.002678,0.000431,0.001763
129809000,0.0324,0.013523,0.002678,0.000431,0.001763
129810000,0.0324,0.013523,0.002678,0.000431,0.001410
129811000,0.0324,0.013523,0.002678,0.000431,0.001880
129812000,0.0324,0.013523,0.002678,0.000431,0.001880
129813000,0.0324,0.013523,0.002678,0.000431,0.001645
129814000,0.0324,0.013523,0.002678,0.000431,0.001645
129815000,0.0324,0.013523,0.002678,0.000431,0.001645
129816000,0.0324,0.013523,0.002678,0.000431,0.001880
129817000,0.0324,0.013523,0.002678,0.000431,0.001645
129818000,0.0324,0.013523,0.002678,0.000431,0.001645
129819000,0.0324,0.013523,0.002678,0.000431,0.001880
129820000,0.0324,0.013523,0.002678,0.000431,0.001645
129821000,0.0324,0.013523,0.002678,0.000431,0.001763
129822000,0.0324,0.013523,0.002678,0.000431,0.001645
129823000,0.0324,0.013523,0.002678,0.000431,0.001763
129824000,0.0324,0.013523,0.002678,0.000431,0.001645
129825000,0.0324,0.013523,0.002678,0.000431,0.001763
129826000,0.0324,0.013523,0.002678,0.000431,0.001645
129827000,0.0324,0.013523,0.002678,0.000431,0.001763
129828000,0.0324,0.013523,0.002678,0.000431,0.001763
129829000,0.0324,0.013523,0.002678,0.000431,0.001528
129830000,0.0324,0.013523,0.002678,0.000431,0.001763
129831000,0.0324,0.013523,0.002678,0.000431,0.001880
129832000,0.0324,0.013523,0.002678,0.000431,0.001763
129833000,0.0324,0.013523,0.002678,0.000431,0.001528
129834000,0.0324,0.013523,0.002678,0.000431,0.001763
129835000,0.0324,0.013523,0.002678,0.000431,0.001645
129836000,0.0324,0.013523,0.002678,0.000431,0.001763
129837000,0.0324,0.013523,0.002678,0.000431,0.001763
129838000,0.0324,0.013523,0.002678,0.000431,0.001645
129839000,0.0324,0.013523,0.002678,0.000431,0.001763
129840000,0.0324,0.013523,0.002678,0.000431,0.001645
129841000,0.0324,0.013523,0.002678,0.000431,0.001763
129842000,0.0324,0.013523,0.002678,0.000431,0.001880
129843000,0.0324,0.013523,0.002678,0.000431,0.001528
129844000,0.0324,0.013523,0.002678,0.000431,0.001763
129845000,0.0324,0.013523,0.002678,0.000431,0.001645
129846000,0.0324,0.013523,0.002678,0.000431,0.001880
129847000,0.0324,0.013523,0.002678,0.000431,0.001645
129848000,0.0324,0.013523,0.002678,0.000431,0.001645
129849000,0.0324,0.013523,0.002678,0.000431,0.001880
129850000,0.0324,0.013523,0.002678,0.000431,0.001645
129851000,0.0324,0.013523,0.002678,0.000431,0.001645
129852000,0.0324,0.013523,0.002678,0.000431,0.001763
129853000,0.0324,0.013523,0.002678,0.000431,0.001763
129854000,0.0324,0.013523,0.002678,0.000431,0.001763
129855000,0.0324,0.013523,0.002678,0.000431,0.001645
129856000,0.0324,0.013523,0.002678,0.000431,0.001645
129857000,0.0324,0.013523,0.002678,0.000431,0.001763
129858000,0.0324,0.013523,0.002678,0.000431,0.001763
129859000,0.0324,0.013523,0.002678,0.000431,0.001645
129860000,0.0324,0.013523,0.002678,0.000431,0.001763
129861000,0.0324,0.013523,0.002678,0.000431,0.001763
129862000,0.0324,0.013523,0.002678,0.000431,0.001645
129863000,0.0324,0.013523,0.002678,0.000431,0.001528
129864000,0.0324,0.013523,0.002678,0.000431,0.001880
129865000,0.0324,0.013523,0.002678,0.000431,0.003173
129866000,0.0324,0.013523,0.002678,0.000431,0.000705
129867000,0.0324,0.013523,0.002678,0.000431,0.000940
129868000,0.0324,0.013523,0.002678,0.000431,0.000705
129869000,0.0324,0.013523,0.002678,0.000431,0.000940
129870000,0.0324,0.013523,0.002678,0.000431,0.000823
129871000,0.0324,0.013523,0.002678,0.000431,0.000823
129872000,0.0324,0.013523,0.002678,0.000431,0.000940
129873000,0.0324,0.013523,0.002678,0.000431,0.000705
129874000,0.0324,0.013523,0.002678,0.000431,0.000940
129875000,0.0324,0.013523,0.002678,0.000431,0.190161
129876000,0.0324,0.013523,0.002678,0.000431,0.486567
129877000,0.0324,0.013523,0.002678,0.000431,0.471053
129878000,0.0324,0.013523,0.002678,0.000431,0.132689
129879000,0.0324,0.013523,0.002678,0.000431,0.138566
129880000,0.0324,0.013523,0.002678,0.000431,0.623252
129881000,0.0324,0.013523,0.002678,0.000431,0.245986
129882000,0.0324,0.013523,0.002678,0.000431,0.240463
129883000,0.0324,0.013523,0.002678,0.000431,0.252568
129884000,0.0324,0.013523,0.002678,0.000431,0.138566
129885000,0.0324,0.013523,0.002678,0.000431,0.152552
129886000,0.0324,0.013523,0.002678,0.000431,0.112710
129887000,0.0324,0.013523,0.002678,0.000431,0.317326
129888000,0.0324,0.013523,0.002678,0.000431,0.270902
129889000,0.0324,0.013523,0.002678,0.000431,0.051595
129890000,0.0324,0.013523,0.002678,0.000431,0.051712
129891000,0.0324,0.013523,0.002678,0.000431,0.039607
129892000,0.0324,0.013523,0.002678,0.000431,0.030675
129893000,0.0324,0.013523,0.002678,0.000431,0.027267
129894000,0.0324,0.013523,0.002678,0.000431,0.024446
129895000,0.0324,0.013523,0.002678,0.000431,0.023858
129896000,0.0324,0.013523,0.002678,0.000431,0.017394
129897000,0.0324,0.013523,0.002678,0.000431,0.011988
129898000,0.0324,0.013523,0.002678,0.000431,0.012693
129899000,0.0324,0.013523,0.002678,0.000431,0.011988
129900000,0.0324,0.013523,0.002678,0.000431,0.013046
129901000,0.0324,0.013523,0.002678,0.000431,0.015396
129902000,0.0324,0.013523,0.002678,0.000431,0.011518
129903000,0.0324,0.013523,0.002678,0.000431,0.012105
129904000,0.0324,0.013523,0.002678,0.000431,0.010695
129905000,0.0324,0.013523,0.002678,0.000431,0.007639
129906000,0.0324,0.013523,0.002678,0.000431,0.008109
129907000,0.0324,0.013523,0.002678,0.000431,0.007052
129908000,0.0324,0.013523,0.002678,0.000431,0.006111
129909000,0.0324,0.013523,0.002678,0.000431,0.006229
129910000,0.0324,0.013523,0.002678,0.000431,0.005876
129911000,0.0324,0.013523,0.002678,0.000431,0.006111
129912000,0.0324,0.013523,0.002678,0.000431,0.005759
129913000,0.0324,0.013523,0.002678,0.000431,0.007874
129914000,0.0324,0.013523,0.002678,0.000431,0.005289
129915000,0.0324,0.013523,0.002678,0.000431,0.005641
129916000,0.0324,0.013523,0.002678,0.000431,0.006582
129917000,0.0324,0.013523,0.002678,0.000431,0.003408
129918000,0.0324,0.013523,0.002678,0.000431,0.003761
129919000,0.0324,0.013523,0.002678,0.000431,0.003526
129920000,0.0324,0.013523,0.002678,0.000431,0.004466
129921000,0.0324,0.013523,0.002678,0.000431,0.002586
129922000,0.0324,0.013523,0.002678,0.000431,0.002703
129923000,0.0324,0.013523,0.002678,0.000431,0.002703
129924000,0.0324,0.013523,0.002678,0.000431,0.002468
129925000,0.0324,0.013523,0.002678,0.000431,0.002586
129926000,0.0324,0.013523,0.002678,0.000431,0.002586
129927000,0.0324,0.013523,0.002678,0.000431,0.002703
129928000,0.0324,0.013523,0.002678,0.000431,0.002468
129929000,0.0324,0.013523,0.002678,0.000431,0.002586
129930000,0.0324,0.013523,0.002678,0.000431,0.002586
129931000,0.0324,0.013523,0.002678,0.000431,0.002586
129932000,0.0324,0.013523,0.002678,0.000431,0.002703
129933000,0.0324,0.013523,0.002678,0.000431,0.002468
129934000,0.0324,0.013523,0.002678,0.000431,0.002703
129935000,0.0324,0.013523,0.002678,0.000431,0.003408
129936000,0.0324,0.013523,0.002678,0.000431,0.001763
129937000,0.0324,0.013523,0.002678,0.000431,0.001880
129938000,0.0324,0.013523,0.002678,0.000431,0.001763
129939000,0.0324,0.013523,0.002678,0.000431,0.001645
129940000,0.0324,0.013523,0.002678,0.000431,0.001763
129941000,0.0324,0.013523,0.002678,0.000431,0.001880
129942000,0.0324,0.013523,0.002678,0.000431,0.001645
129943000,0.0324,0.013523,0.002678,0.000431,0.001645
129944000,0.0324,0.013523,0.002678,0.000431,0.001880
129945000,0.0324,0.013523,0.002678,0.000431,0.001880
129946000,0.0324,0.013523,0.002678,0.000431,0.001645
129947000,0.0324,0.013523,0.002678,0.000431,0.001645
129948000,0.0324,0.013523,0.002678,0.000431,0.001880
129949000,0.0324,0.013523,0.002678,0.000431,0.001763
129950000,0.0324,0.013523,0.002678,0.000431,0.001763
129951000,0.0324,0.013523,0.002678,0.000431,0.001645
129952000,0.0324,0.013523,0.002678,0.000431,0.001880
129953000,0.0324,0.013523,0.002678,0.000431,0.001645
129954000,0.0324,0.013523,0.002678,0.000431,0.001763
129955000,0.0324,0.013523,0.002678,0.000431,0.001763
129956000,0.0324,0.013523,0.002678,0.000431,0.001880
129957000,0.0324,0.013523,0.002678,0.000431,0.001763
129958000,0.0324,0.013523,0.002678,0.000431,0.001528
129959000,0.0324,0.013523,0.002678,0.000431,0.001880
129960000,0.0324,0.013523,0.002678,0.000431,0.001880
129961000,0.0324,0.013523,0.002678,0.000431,0.001645
129962000,0.0324,0.013523,0.002678,0.000431,0.001645
129963000,0.0324,0.013523,0.002678,0.000431,0.001880
129964000,0.0324,0.013523,0.002678,0.000431,0.001880
129965000,0.0324,0.013523,0.002678,0.000431,0.002938
129966000,0.0324,0.013523,0.002678,0.000431,0.000823
129967000,0.0324,0.013523,0.002678,0.000431,0.000823
129968000,0.0324,0.013523,0.002678,0.000431,0.000940
129969000,0.0324,0.013523,0.002678,0.000431,0.000940
129970000,0.0324,0.013523,0.002678,0.000431,0.000705
129971000,0.0324,0.013523,0.002678,0.000431,0.000940
129972000,0.0324,0.013523,0.002678,0.000431,0.000940
129973000,0.0324,0.013523,0.002678,0.000431,0.000940
129974000,0.0324,0.013523,0.002678,0.000431,0.000705
129975000,0.0324,0.013523,0.002678,0.000431,0.000940
129976000,0.0324,0.013523,0.002678,0.000431,0.000940
129977000,0.0324,0.013523,0.002678,0.000431,0.000823
129978000,0.0324,0.013523,0.002678,0.000431,0.000940
129979000,0.0324,0.013523,0.002678,0.000431,0.000823
129980000,0.0324,0.013523,0.002678,0.000431,0.000940
129981000,0.0324,0.013523,0.002678,0.000431,0.000823
129982000,0.0324,0.013523,0.002678,0.000431,0.000823
129983000,0.0324,0.013523,0.002678,0.000431,0.000940
129984000,0.0324,0.013523,0.002678,0.000431,0.000940
129985000,0.0324,0.013523,0.002678,0.000431,0.000705
129986000,0.0324,0.013523,0.002678,0.000431,0.000940
129987000,0.0324,0.013523,0.002678,0.000431,0.000940
129988000,0.0324,0.013523,0.002678,0.000431,0.000940
129989000,0.0324,0.013523,0.002678,0.000431,0.000705
129990000,0.0324,0.013523,0.002678,0.000431,0.000940
129991000,0.0324,0.013523,0.002678,0.000431,0.000940
129992000,0.0324,0.013523,0.002678,0.000431,0.000823
129993000,0.0324,0.013523,0.002678,0.000431,0.000823
129994000,0.0324,0.013523,0.002678,0.000431,0.000940
129995000,0.0324,0.013523,0.002678,0.000431,0.000940
129996000,0.0324,0.013523,0.002678,0.000431,0.000823
129997000,0.0324,0.013523,0.002678,0.000431,0.000823
129998000,0.0324,0.013523,0.002678,0.000431,0.000940
129999000,0.0324,0.013523,0.002678,0.000431,0.000823
