Cycle,Area(mm^2),PeakDynamic(W),SubthresholdLeakage(W),GateLeakage(W),RunTimeDynamic(W)
35000000,0.0324,0.013523,0.002678,0.000431,0.000823
35001000,0.0324,0.013523,0.002678,0.000431,0.000940
35002000,0.0324,0.013523,0.002678,0.000431,0.000823
35003000,0.0324,0.013523,0.002678,0.000431,0.000823
35004000,0.0324,0.013523,0.002678,0.000431,0.000823
35005000,0.0324,0.013523,0.002678,0.000431,0.000823
35006000,0.0324,0.013523,0.002678,0.000431,0.000823
35007000,0.0324,0.013523,0.002678,0.000431,0.000823
35008000,0.0324,0.013523,0.002678,0.000431,0.000940
35009000,0.0324,0.013523,0.002678,0.000431,0.000705
35010000,0.0324,0.013523,0.002678,0.000431,0.000823
35011000,0.0324,0.013523,0.002678,0.000431,0.000940
35012000,0.0324,0.013523,0.002678,0.000431,0.000823
35013000,0.0324,0.013523,0.002678,0.000431,0.000823
35014000,0.0324,0.013523,0.002678,0.000431,0.000823
35015000,0.0324,0.013523,0.002678,0.000431,0.000705
35016000,0.0324,0.013523,0.002678,0.000431,0.000940
35017000,0.0324,0.013523,0.002678,0.000431,0.000940
35018000,0.0324,0.013523,0.002678,0.000431,0.000705
35019000,0.0324,0.013523,0.002678,0.000431,0.000940
35020000,0.0324,0.013523,0.002678,0.000431,0.000705
35021000,0.0324,0.013523,0.002678,0.000431,0.000940
35022000,0.0324,0.013523,0.002678,0.000431,0.000940
35023000,0.0324,0.013523,0.002678,0.000431,0.000705
35024000,0.0324,0.013523,0.002678,0.000431,0.000940
35025000,0.0324,0.013523,0.002678,0.000431,0.000705
35026000,0.0324,0.013523,0.002678,0.000431,0.000940
35027000,0.0324,0.013523,0.002678,0.000431,0.000823
35028000,0.0324,0.013523,0.002678,0.000431,0.000823
35029000,0.0324,0.013523,0.002678,0.000431,0.000823
35030000,0.0324,0.013523,0.002678,0.000431,0.000823
35031000,0.0324,0.013523,0.002678,0.000431,0.000940
35032000,0.0324,0.013523,0.002678,0.000431,0.000823
35033000,0.0324,0.013523,0.002678,0.000431,0.000823
35034000,0.0324,0.013523,0.002678,0.000431,0.000823
35035000,0.0324,0.013523,0.002678,0.000431,0.000823
35036000,0.0324,0.013523,0.002678,0.000431,0.000823
35037000,0.0324,0.013523,0.002678,0.000431,0.000823
35038000,0.0324,0.013523,0.002678,0.000431,0.000940
35039000,0.0324,0.013523,0.002678,0.000431,0.000705
35040000,0.0324,0.013523,0.002678,0.000431,0.000940
35041000,0.0324,0.013523,0.002678,0.000431,0.000823
35042000,0.0324,0.013523,0.002678,0.000431,0.000823
35043000,0.0324,0.013523,0.002678,0.000431,0.000705
35044000,0.0324,0.013523,0.002678,0.000431,0.000940
35045000,0.0324,0.013523,0.002678,0.000431,0.000940
35046000,0.0324,0.013523,0.002678,0.000431,0.000705
35047000,0.0324,0.013523,0.002678,0.000431,0.000940
35048000,0.0324,0.013523,0.002678,0.000431,0.000705
35049000,0.0324,0.013523,0.002678,0.000431,0.000940
35050000,0.0324,0.013523,0.002678,0.000431,0.000940
35051000,0.0324,0.013523,0.002678,0.000431,0.000705
35052000,0.0324,0.013523,0.002678,0.000431,0.000940
35053000,0.0324,0.013523,0.002678,0.000431,0.000705
35054000,0.0324,0.013523,0.002678,0.000431,0.000940
35055000,0.0324,0.013523,0.002678,0.000431,0.000823
35056000,0.0324,0.013523,0.002678,0.000431,0.000823
35057000,0.0324,0.013523,0.002678,0.000431,0.000823
35058000,0.0324,0.013523,0.002678,0.000431,0.000823
35059000,0.0324,0.013523,0.002678,0.000431,0.000940
35060000,0.0324,0.013523,0.002678,0.000431,0.000823
35061000,0.0324,0.013523,0.002678,0.000431,0.000823
35062000,0.0324,0.013523,0.002678,0.000431,0.000823
35063000,0.0324,0.013523,0.002678,0.000431,0.000823
35064000,0.0324,0.013523,0.002678,0.000431,0.000823
35065000,0.0324,0.013523,0.002678,0.000431,0.000823
35066000,0.0324,0.013523,0.002678,0.000431,0.000940
35067000,0.0324,0.013523,0.002678,0.000431,0.000705
35068000,0.0324,0.013523,0.002678,0.000431,0.000823
35069000,0.0324,0.013523,0.002678,0.000431,0.000940
35070000,0.0324,0.013523,0.002678,0.000431,0.000823
35071000,0.0324,0.013523,0.002678,0.000431,0.000823
35072000,0.0324,0.013523,0.002678,0.000431,0.000823
35073000,0.0324,0.013523,0.002678,0.000431,0.000823
35074000,0.0324,0.013523,0.002678,0.000431,0.000823
35075000,0.0324,0.013523,0.002678,0.000431,0.000940
35076000,0.0324,0.013523,0.002678,0.000431,0.000823
35077000,0.0324,0.013523,0.002678,0.000431,0.000823
35078000,0.0324,0.013523,0.002678,0.000431,0.000705
35079000,0.0324,0.013523,0.002678,0.000431,0.000940
35080000,0.0324,0.013523,0.002678,0.000431,0.000940
35081000,0.0324,0.013523,0.002678,0.000431,0.000705
35082000,0.0324,0.013523,0.002678,0.000431,0.000940
35083000,0.0324,0.013523,0.002678,0.000431,0.000705
35084000,0.0324,0.013523,0.002678,0.000431,0.000940
35085000,0.0324,0.013523,0.002678,0.000431,0.000940
35086000,0.0324,0.013523,0.002678,0.000431,0.000705
35087000,0.0324,0.013523,0.002678,0.000431,0.000940
35088000,0.0324,0.013523,0.002678,0.000431,0.000705
35089000,0.0324,0.013523,0.002678,0.000431,0.000940
35090000,0.0324,0.013523,0.002678,0.000431,0.000823
35091000,0.0324,0.013523,0.002678,0.000431,0.000823
35092000,0.0324,0.013523,0.002678,0.000431,0.000823
35093000,0.0324,0.013523,0.002678,0.000431,0.000823
35094000,0.0324,0.013523,0.002678,0.000431,0.000940
35095000,0.0324,0.013523,0.002678,0.000431,0.000823
35096000,0.0324,0.013523,0.002678,0.000431,0.000823
35097000,0.0324,0.013523,0.002678,0.000431,0.000823
35098000,0.0324,0.013523,0.002678,0.000431,0.000823
35099000,0.0324,0.013523,0.002678,0.000431,0.000823
35100000,0.0324,0.013523,0.002678,0.000431,0.000823
35101000,0.0324,0.013523,0.002678,0.000431,0.000940
35102000,0.0324,0.013523,0.002678,0.000431,0.000705
35103000,0.0324,0.013523,0.002678,0.000431,0.000940
35104000,0.0324,0.013523,0.002678,0.000431,0.000823
35105000,0.0324,0.013523,0.002678,0.000431,0.000823
35106000,0.0324,0.013523,0.002678,0.000431,0.000705
35107000,0.0324,0.013523,0.002678,0.000431,0.000940
35108000,0.0324,0.013523,0.002678,0.000431,0.000940
35109000,0.0324,0.013523,0.002678,0.000431,0.000705
35110000,0.0324,0.013523,0.002678,0.000431,0.000940
35111000,0.0324,0.013523,0.002678,0.000431,0.000705
35112000,0.0324,0.013523,0.002678,0.000431,0.000940
35113000,0.0324,0.013523,0.002678,0.000431,0.000940
35114000,0.0324,0.013523,0.002678,0.000431,0.000705
35115000,0.0324,0.013523,0.002678,0.000431,0.000940
35116000,0.0324,0.013523,0.002678,0.000431,0.000705
35117000,0.0324,0.013523,0.002678,0.000431,0.000940
35118000,0.0324,0.013523,0.002678,0.000431,0.000823
35119000,0.0324,0.013523,0.002678,0.000431,0.000823
35120000,0.0324,0.013523,0.002678,0.000431,0.000823
35121000,0.0324,0.013523,0.002678,0.000431,0.000823
35122000,0.0324,0.013523,0.002678,0.000431,0.000940
35123000,0.0324,0.013523,0.002678,0.000431,0.000823
35124000,0.0324,0.013523,0.002678,0.000431,0.000823
35125000,0.0324,0.013523,0.002678,0.000431,0.000823
35126000,0.0324,0.013523,0.002678,0.000431,0.000823
35127000,0.0324,0.013523,0.002678,0.000431,0.000823
35128000,0.0324,0.013523,0.002678,0.000431,0.000823
35129000,0.0324,0.013523,0.002678,0.000431,0.000940
35130000,0.0324,0.013523,0.002678,0.000431,0.000705
35131000,0.0324,0.013523,0.002678,0.000431,0.000823
35132000,0.0324,0.013523,0.002678,0.000431,0.000940
35133000,0.0324,0.013523,0.002678,0.000431,0.000823
35134000,0.0324,0.013523,0.002678,0.000431,0.000823
35135000,0.0324,0.013523,0.002678,0.000431,0.000823
35136000,0.0324,0.013523,0.002678,0.000431,0.000823
35137000,0.0324,0.013523,0.002678,0.000431,0.000823
35138000,0.0324,0.013523,0.002678,0.000431,0.000940
35139000,0.0324,0.013523,0.002678,0.000431,0.000823
35140000,0.0324,0.013523,0.002678,0.000431,0.000823
35141000,0.0324,0.013523,0.002678,0.000431,0.000705
35142000,0.0324,0.013523,0.002678,0.000431,0.000940
35143000,0.0324,0.013523,0.002678,0.000431,0.000940
35144000,0.0324,0.013523,0.002678,0.000431,0.000705
35145000,0.0324,0.013523,0.002678,0.000431,0.000940
35146000,0.0324,0.013523,0.002678,0.000431,0.000705
35147000,0.0324,0.013523,0.002678,0.000431,0.000940
35148000,0.0324,0.013523,0.002678,0.000431,0.000940
35149000,0.0324,0.013523,0.002678,0.000431,0.000705
35150000,0.0324,0.013523,0.002678,0.000431,0.000940
35151000,0.0324,0.013523,0.002678,0.000431,0.000705
35152000,0.0324,0.013523,0.002678,0.000431,0.000940
35153000,0.0324,0.013523,0.002678,0.000431,0.000823
35154000,0.0324,0.013523,0.002678,0.000431,0.000823
35155000,0.0324,0.013523,0.002678,0.000431,0.000823
35156000,0.0324,0.013523,0.002678,0.000431,0.000823
35157000,0.0324,0.013523,0.002678,0.000431,0.000940
35158000,0.0324,0.013523,0.002678,0.000431,0.000823
35159000,0.0324,0.013523,0.002678,0.000431,0.000823
35160000,0.0324,0.013523,0.002678,0.000431,0.000823
35161000,0.0324,0.013523,0.002678,0.000431,0.000823
35162000,0.0324,0.013523,0.002678,0.000431,0.000823
35163000,0.0324,0.013523,0.002678,0.000431,0.000823
35164000,0.0324,0.013523,0.002678,0.000431,0.000940
35165000,0.0324,0.013523,0.002678,0.000431,0.000705
35166000,0.0324,0.013523,0.002678,0.000431,0.000940
35167000,0.0324,0.013523,0.002678,0.000431,0.000823
35168000,0.0324,0.013523,0.002678,0.000431,0.000823
35169000,0.0324,0.013523,0.002678,0.000431,0.000705
35170000,0.0324,0.013523,0.002678,0.000431,0.000940
35171000,0.0324,0.013523,0.002678,0.000431,0.000940
35172000,0.0324,0.013523,0.002678,0.000431,0.000705
35173000,0.0324,0.013523,0.002678,0.000431,0.000940
35174000,0.0324,0.013523,0.002678,0.000431,0.000705
35175000,0.0324,0.013523,0.002678,0.000431,0.000940
35176000,0.0324,0.013523,0.002678,0.000431,0.000940
35177000,0.0324,0.013523,0.002678,0.000431,0.000705
35178000,0.0324,0.013523,0.002678,0.000431,0.000940
35179000,0.0324,0.013523,0.002678,0.000431,0.000705
35180000,0.0324,0.013523,0.002678,0.000431,0.000940
35181000,0.0324,0.013523,0.002678,0.000431,0.000823
35182000,0.0324,0.013523,0.002678,0.000431,0.000823
35183000,0.0324,0.013523,0.002678,0.000431,0.000823
35184000,0.0324,0.013523,0.002678,0.000431,0.000823
35185000,0.0324,0.013523,0.002678,0.000431,0.000940
35186000,0.0324,0.013523,0.002678,0.000431,0.000823
35187000,0.0324,0.013523,0.002678,0.000431,0.000823
35188000,0.0324,0.013523,0.002678,0.000431,0.000823
35189000,0.0324,0.013523,0.002678,0.000431,0.000823
35190000,0.0324,0.013523,0.002678,0.000431,0.000823
35191000,0.0324,0.013523,0.002678,0.000431,0.000823
35192000,0.0324,0.013523,0.002678,0.000431,0.000940
35193000,0.0324,0.013523,0.002678,0.000431,0.000705
35194000,0.0324,0.013523,0.002678,0.000431,0.000823
35195000,0.0324,0.013523,0.002678,0.000431,0.000940
35196000,0.0324,0.013523,0.002678,0.000431,0.000823
35197000,0.0324,0.013523,0.002678,0.000431,0.000823
35198000,0.0324,0.013523,0.002678,0.000431,0.000823
35199000,0.0324,0.013523,0.002678,0.000431,0.000823
35200000,0.0324,0.013523,0.002678,0.000431,0.000823
35201000,0.0324,0.013523,0.002678,0.000431,0.000940
35202000,0.0324,0.013523,0.002678,0.000431,0.000823
35203000,0.0324,0.013523,0.002678,0.000431,0.000823
35204000,0.0324,0.013523,0.002678,0.000431,0.000705
35205000,0.0324,0.013523,0.002678,0.000431,0.000940
35206000,0.0324,0.013523,0.002678,0.000431,0.000940
35207000,0.0324,0.013523,0.002678,0.000431,0.000705
35208000,0.0324,0.013523,0.002678,0.000431,0.000940
35209000,0.0324,0.013523,0.002678,0.000431,0.000705
35210000,0.0324,0.013523,0.002678,0.000431,0.000940
35211000,0.0324,0.013523,0.002678,0.000431,0.000823
35212000,0.0324,0.013523,0.002678,0.000431,0.000823
35213000,0.0324,0.013523,0.002678,0.000431,0.000940
35214000,0.0324,0.013523,0.002678,0.000431,0.002586
35215000,0.0324,0.013523,0.002678,0.000431,0.352820
35216000,0.0324,0.013523,0.002678,0.000431,0.674612
35217000,0.0324,0.013523,0.002678,0.000431,0.133747
35218000,0.0324,0.013523,0.002678,0.000431,0.133982
35219000,0.0324,0.013523,0.002678,0.000431,0.130926
35220000,0.0324,0.013523,0.002678,0.000431,0.604095
35221000,0.0324,0.013523,0.002678,0.000431,0.239287
35222000,0.0324,0.013523,0.002678,0.000431,0.267964
35223000,0.0324,0.013523,0.002678,0.000431,0.265614
35224000,0.0324,0.013523,0.002678,0.000431,0.136803
35225000,0.0324,0.013523,0.002678,0.000431,0.141504
35226000,0.0324,0.013523,0.002678,0.000431,0.108361
35227000,0.0324,0.013523,0.002678,0.000431,0.412994
35228000,0.0324,0.013523,0.002678,0.000431,0.172414
35229000,0.0324,0.013523,0.002678,0.000431,0.039489
35230000,0.0324,0.013523,0.002678,0.000431,0.027737
35231000,0.0324,0.013523,0.002678,0.000431,0.027384
35232000,0.0324,0.013523,0.002678,0.000431,0.021978
35233000,0.0324,0.013523,0.002678,0.000431,0.020332
35234000,0.0324,0.013523,0.002678,0.000431,0.023036
35235000,0.0324,0.013523,0.002678,0.000431,0.019627
35236000,0.0324,0.013523,0.002678,0.000431,0.018569
35237000,0.0324,0.013523,0.002678,0.000431,0.019040
35238000,0.0324,0.013523,0.002678,0.000431,0.019862
35239000,0.0324,0.013523,0.002678,0.000431,0.016454
35240000,0.0324,0.013523,0.002678,0.000431,0.016454
35241000,0.0324,0.013523,0.002678,0.000431,0.013633
35242000,0.0324,0.013523,0.002678,0.000431,0.013163
35243000,0.0324,0.013523,0.002678,0.000431,0.015279
35244000,0.0324,0.013523,0.002678,0.000431,0.010813
35245000,0.0324,0.013523,0.002678,0.000431,0.008697
35246000,0.0324,0.013523,0.002678,0.000431,0.009402
35247000,0.0324,0.013523,0.002678,0.000431,0.007874
35248000,0.0324,0.013523,0.002678,0.000431,0.009637
35249000,0.0324,0.013523,0.002678,0.000431,0.007169
35250000,0.0324,0.013523,0.002678,0.000431,0.006817
35251000,0.0324,0.013523,0.002678,0.000431,0.010225
35252000,0.0324,0.013523,0.002678,0.000431,0.006347
35253000,0.0324,0.013523,0.002678,0.000431,0.004231
35254000,0.0324,0.013523,0.002678,0.000431,0.004349
35255000,0.0324,0.013523,0.002678,0.000431,0.003878
35256000,0.0324,0.013523,0.002678,0.000431,0.005994
35257000,0.0324,0.013523,0.002678,0.000431,0.005994
35258000,0.0324,0.013523,0.002678,0.000431,0.001880
35259000,0.0324,0.013523,0.002678,0.000431,0.001528
35260000,0.0324,0.013523,0.002678,0.000431,0.001763
35261000,0.0324,0.013523,0.002678,0.000431,0.001763
35262000,0.0324,0.013523,0.002678,0.000431,0.001645
35263000,0.0324,0.013523,0.002678,0.000431,0.001645
35264000,0.0324,0.013523,0.002678,0.000431,0.001763
35265000,0.0324,0.013523,0.002678,0.000431,0.001880
35266000,0.0324,0.013523,0.002678,0.000431,0.001528
35267000,0.0324,0.013523,0.002678,0.000431,0.001763
35268000,0.0324,0.013523,0.002678,0.000431,0.001645
35269000,0.0324,0.013523,0.002678,0.000431,0.001880
35270000,0.0324,0.013523,0.002678,0.000431,0.001645
35271000,0.0324,0.013523,0.002678,0.000431,0.001645
35272000,0.0324,0.013523,0.002678,0.000431,0.001763
35273000,0.0324,0.013523,0.002678,0.000431,0.004231
35274000,0.0324,0.013523,0.002678,0.000431,0.000705
35275000,0.0324,0.013523,0.002678,0.000431,0.000940
35276000,0.0324,0.013523,0.002678,0.000431,0.000940
35277000,0.0324,0.013523,0.002678,0.000431,0.000823
35278000,0.0324,0.013523,0.002678,0.000431,0.000940
35279000,0.0324,0.013523,0.002678,0.000431,0.000823
35280000,0.0324,0.013523,0.002678,0.000431,0.001645
35281000,0.0324,0.013523,0.002678,0.000431,0.339774
35282000,0.0324,0.013523,0.002678,0.000431,0.651459
35283000,0.0324,0.013523,0.002678,0.000431,0.180406
35284000,0.0324,0.013523,0.002678,0.000431,0.131161
35285000,0.0324,0.013523,0.002678,0.000431,0.133512
35286000,0.0324,0.013523,0.002678,0.000431,0.604565
35287000,0.0324,0.013523,0.002678,0.000431,0.217780
35288000,0.0324,0.013523,0.002678,0.000431,0.254801
35289000,0.0324,0.013523,0.002678,0.000431,0.273253
35290000,0.0324,0.013523,0.002678,0.000431,0.141034
35291000,0.0324,0.013523,0.002678,0.000431,0.154667
35292000,0.0324,0.013523,0.002678,0.000431,0.108008
35293000,0.0324,0.013523,0.002678,0.000431,0.368921
35294000,0.0324,0.013523,0.002678,0.000431,0.203324
35295000,0.0324,0.013523,0.002678,0.000431,0.037256
35296000,0.0324,0.013523,0.002678,0.000431,0.032790
35297000,0.0324,0.013523,0.002678,0.000431,0.026914
35298000,0.0324,0.013523,0.002678,0.000431,0.024798
35299000,0.0324,0.013523,0.002678,0.000431,0.023271
35300000,0.0324,0.013523,0.002678,0.000431,0.024563
35301000,0.0324,0.013523,0.002678,0.000431,0.024093
35302000,0.0324,0.013523,0.002678,0.000431,0.026326
35303000,0.0324,0.013523,0.002678,0.000431,0.023623
35304000,0.0324,0.013523,0.002678,0.000431,0.018569
35305000,0.0324,0.013523,0.002678,0.000431,0.018687
35306000,0.0324,0.013523,0.002678,0.000431,0.015866
35307000,0.0324,0.013523,0.002678,0.000431,0.013046
35308000,0.0324,0.013523,0.002678,0.000431,0.014691
35309000,0.0324,0.013523,0.002678,0.000431,0.012105
35310000,0.0324,0.013523,0.002678,0.000431,0.012340
35311000,0.0324,0.013523,0.002678,0.000431,0.013633
35312000,0.0324,0.013523,0.002678,0.000431,0.012340
35313000,0.0324,0.013523,0.002678,0.000431,0.013163
35314000,0.0324,0.013523,0.002678,0.000431,0.011870
35315000,0.0324,0.013523,0.002678,0.000431,0.009872
35316000,0.0324,0.013523,0.002678,0.000431,0.010695
35317000,0.0324,0.013523,0.002678,0.000431,0.009285
35318000,0.0324,0.013523,0.002678,0.000431,0.009755
35319000,0.0324,0.013523,0.002678,0.000431,0.008462
35320000,0.0324,0.013523,0.002678,0.000431,0.010695
35321000,0.0324,0.013523,0.002678,0.000431,0.010107
35322000,0.0324,0.013523,0.002678,0.000431,0.007639
35323000,0.0324,0.013523,0.002678,0.000431,0.009050
35324000,0.0324,0.013523,0.002678,0.000431,0.007404
35325000,0.0324,0.013523,0.002678,0.000431,0.009167
35326000,0.0324,0.013523,0.002678,0.000431,0.008932
35327000,0.0324,0.013523,0.002678,0.000431,0.007169
35328000,0.0324,0.013523,0.002678,0.000431,0.005641
35329000,0.0324,0.013523,0.002678,0.000431,0.005876
35330000,0.0324,0.013523,0.002678,0.000431,0.005994
35331000,0.0324,0.013523,0.002678,0.000431,0.006111
35332000,0.0324,0.013523,0.002678,0.000431,0.007639
35333000,0.0324,0.013523,0.002678,0.000431,0.005289
35334000,0.0324,0.013523,0.002678,0.000431,0.004819
35335000,0.0324,0.013523,0.002678,0.000431,0.004936
35336000,0.0324,0.013523,0.002678,0.000431,0.005524
35337000,0.0324,0.013523,0.002678,0.000431,0.004819
35338000,0.0324,0.013523,0.002678,0.000431,0.007404
35339000,0.0324,0.013523,0.002678,0.000431,0.004113
35340000,0.0324,0.013523,0.002678,0.000431,0.004466
35341000,0.0324,0.013523,0.002678,0.000431,0.004113
35342000,0.0324,0.013523,0.002678,0.000431,0.003996
35343000,0.0324,0.013523,0.002678,0.000431,0.004584
35344000,0.0324,0.013523,0.002678,0.000431,0.004113
35345000,0.0324,0.013523,0.002678,0.000431,0.004113
35346000,0.0324,0.013523,0.002678,0.000431,0.004701
35347000,0.0324,0.013523,0.002678,0.000431,0.003408
35348000,0.0324,0.013523,0.002678,0.000431,0.001763
35349000,0.0324,0.013523,0.002678,0.000431,0.001645
35350000,0.0324,0.013523,0.002678,0.000431,0.001763
35351000,0.0324,0.013523,0.002678,0.000431,0.001645
35352000,0.0324,0.013523,0.002678,0.000431,0.001880
35353000,0.0324,0.013523,0.002678,0.000431,0.001528
35354000,0.0324,0.013523,0.002678,0.000431,0.001763
35355000,0.0324,0.013523,0.002678,0.000431,0.001763
35356000,0.0324,0.013523,0.002678,0.000431,0.001763
35357000,0.0324,0.013523,0.002678,0.000431,0.001528
35358000,0.0324,0.013523,0.002678,0.000431,0.001763
35359000,0.0324,0.013523,0.002678,0.000431,0.001880
35360000,0.0324,0.013523,0.002678,0.000431,0.001645
35361000,0.0324,0.013523,0.002678,0.000431,0.001645
35362000,0.0324,0.013523,0.002678,0.000431,0.001645
35363000,0.0324,0.013523,0.002678,0.000431,0.001880
35364000,0.0324,0.013523,0.002678,0.000431,0.001763
35365000,0.0324,0.013523,0.002678,0.000431,0.001528
35366000,0.0324,0.013523,0.002678,0.000431,0.001880
35367000,0.0324,0.013523,0.002678,0.000431,0.001645
35368000,0.0324,0.013523,0.002678,0.000431,0.001880
35369000,0.0324,0.013523,0.002678,0.000431,0.001645
35370000,0.0324,0.013523,0.002678,0.000431,0.001645
35371000,0.0324,0.013523,0.002678,0.000431,0.001763
35372000,0.0324,0.013523,0.002678,0.000431,0.001645
35373000,0.0324,0.013523,0.002678,0.000431,0.001763
35374000,0.0324,0.013523,0.002678,0.000431,0.001645
35375000,0.0324,0.013523,0.002678,0.000431,0.001880
35376000,0.0324,0.013523,0.002678,0.000431,0.001528
35377000,0.0324,0.013523,0.002678,0.000431,0.001645
35378000,0.0324,0.013523,0.002678,0.000431,0.001880
35379000,0.0324,0.013523,0.002678,0.000431,0.001763
35380000,0.0324,0.013523,0.002678,0.000431,0.001645
35381000,0.0324,0.013523,0.002678,0.000431,0.001645
35382000,0.0324,0.013523,0.002678,0.000431,0.001763
35383000,0.0324,0.013523,0.002678,0.000431,0.001763
35384000,0.0324,0.013523,0.002678,0.000431,0.001645
35385000,0.0324,0.013523,0.002678,0.000431,0.001763
35386000,0.0324,0.013523,0.002678,0.000431,0.001763
35387000,0.0324,0.013523,0.002678,0.000431,0.001645
35388000,0.0324,0.013523,0.002678,0.000431,0.001645
35389000,0.0324,0.013523,0.002678,0.000431,0.001880
35390000,0.0324,0.013523,0.002678,0.000431,0.001645
35391000,0.0324,0.013523,0.002678,0.000431,0.001763
35392000,0.0324,0.013523,0.002678,0.000431,0.001528
35393000,0.0324,0.013523,0.002678,0.000431,0.001880
35394000,0.0324,0.013523,0.002678,0.000431,0.001763
35395000,0.0324,0.013523,0.002678,0.000431,0.001645
35396000,0.0324,0.013523,0.002678,0.000431,0.001763
35397000,0.0324,0.013523,0.002678,0.000431,0.001645
35398000,0.0324,0.013523,0.002678,0.000431,0.001763
35399000,0.0324,0.013523,0.002678,0.000431,0.001645
35400000,0.0324,0.013523,0.002678,0.000431,0.001763
35401000,0.0324,0.013523,0.002678,0.000431,0.001763
35402000,0.0324,0.013523,0.002678,0.000431,0.001645
35403000,0.0324,0.013523,0.002678,0.000431,0.002586
35404000,0.0324,0.013523,0.002678,0.000431,0.002116
35405000,0.0324,0.013523,0.002678,0.000431,0.000940
35406000,0.0324,0.013523,0.002678,0.000431,0.000823
35407000,0.0324,0.013523,0.002678,0.000431,0.000823
35408000,0.0324,0.013523,0.002678,0.000431,0.000940
35409000,0.0324,0.013523,0.002678,0.000431,0.000940
35410000,0.0324,0.013523,0.002678,0.000431,0.000823
35411000,0.0324,0.013523,0.002678,0.000431,0.000823
35412000,0.0324,0.013523,0.002678,0.000431,0.000940
35413000,0.0324,0.013523,0.002678,0.000431,0.000823
35414000,0.0324,0.013523,0.002678,0.000431,0.000940
35415000,0.0324,0.013523,0.002678,0.000431,0.000823
35416000,0.0324,0.013523,0.002678,0.000431,0.000940
35417000,0.0324,0.013523,0.002678,0.000431,0.000823
35418000,0.0324,0.013523,0.002678,0.000431,0.000823
35419000,0.0324,0.013523,0.002678,0.000431,0.000940
35420000,0.0324,0.013523,0.002678,0.000431,0.000940
35421000,0.0324,0.013523,0.002678,0.000431,0.000823
35422000,0.0324,0.013523,0.002678,0.000431,0.000823
35423000,0.0324,0.013523,0.002678,0.000431,0.000940
35424000,0.0324,0.013523,0.002678,0.000431,0.000940
35425000,0.0324,0.013523,0.002678,0.000431,0.000705
35426000,0.0324,0.013523,0.002678,0.000431,0.000940
35427000,0.0324,0.013523,0.002678,0.000431,0.000940
35428000,0.0324,0.013523,0.002678,0.000431,0.000940
35429000,0.0324,0.013523,0.002678,0.000431,0.000823
35430000,0.0324,0.013523,0.002678,0.000431,0.000823
35431000,0.0324,0.013523,0.002678,0.000431,0.000940
35432000,0.0324,0.013523,0.002678,0.000431,0.000823
35433000,0.0324,0.013523,0.002678,0.000431,0.000940
35434000,0.0324,0.013523,0.002678,0.000431,0.000823
35435000,0.0324,0.013523,0.002678,0.000431,0.000940
35436000,0.0324,0.013523,0.002678,0.000431,0.000823
35437000,0.0324,0.013523,0.002678,0.000431,0.000823
35438000,0.0324,0.013523,0.002678,0.000431,0.000940
35439000,0.0324,0.013523,0.002678,0.000431,0.000940
35440000,0.0324,0.013523,0.002678,0.000431,0.000705
35441000,0.0324,0.013523,0.002678,0.000431,0.000940
35442000,0.0324,0.013523,0.002678,0.000431,0.000940
35443000,0.0324,0.013523,0.002678,0.000431,0.000940
35444000,0.0324,0.013523,0.002678,0.000431,0.000705
35445000,0.0324,0.013523,0.002678,0.000431,0.000940
35446000,0.0324,0.013523,0.002678,0.000431,0.000940
35447000,0.0324,0.013523,0.002678,0.000431,0.000823
35448000,0.0324,0.013523,0.002678,0.000431,0.000823
35449000,0.0324,0.013523,0.002678,0.000431,0.000940
35450000,0.0324,0.013523,0.002678,0.000431,0.000940
35451000,0.0324,0.013523,0.002678,0.000431,0.000823
35452000,0.0324,0.013523,0.002678,0.000431,0.000823
35453000,0.0324,0.013523,0.002678,0.000431,0.000940
35454000,0.0324,0.013523,0.002678,0.000431,0.000823
35455000,0.0324,0.013523,0.002678,0.000431,0.082622
35456000,0.0324,0.013523,0.002678,0.000431,0.480103
35457000,0.0324,0.013523,0.002678,0.000431,0.541100
35458000,0.0324,0.013523,0.002678,0.000431,0.133982
35459000,0.0324,0.013523,0.002678,0.000431,0.131632
35460000,0.0324,0.013523,0.002678,0.000431,0.549327
35461000,0.0324,0.013523,0.002678,0.000431,0.229650
35462000,0.0324,0.013523,0.002678,0.000431,0.249042
35463000,0.0324,0.013523,0.002678,0.000431,0.291352
35464000,0.0324,0.013523,0.002678,0.000431,0.167713
35465000,0.0324,0.013523,0.002678,0.000431,0.143502
35466000,0.0324,0.013523,0.002678,0.000431,0.167595
35467000,0.0324,0.013523,0.002678,0.000431,0.118351
35468000,0.0324,0.013523,0.002678,0.000431,0.456362
35469000,0.0324,0.013523,0.002678,0.000431,0.086971
35470000,0.0324,0.013523,0.002678,0.000431,0.047011
35471000,0.0324,0.013523,0.002678,0.000431,0.043956
35472000,0.0324,0.013523,0.002678,0.000431,0.039489
35473000,0.0324,0.013523,0.002678,0.000431,0.037609
35474000,0.0324,0.013523,0.002678,0.000431,0.029970
35475000,0.0324,0.013523,0.002678,0.000431,0.022448
35476000,0.0324,0.013523,0.002678,0.000431,0.021038
35477000,0.0324,0.013523,0.002678,0.000431,0.020802
35478000,0.0324,0.013523,0.002678,0.000431,0.020215
35479000,0.0324,0.013523,0.002678,0.000431,0.019510
35480000,0.0324,0.013523,0.002678,0.000431,0.019275
35481000,0.0324,0.013523,0.002678,0.000431,0.022095
35482000,0.0324,0.013523,0.002678,0.000431,0.017982
35483000,0.0324,0.013523,0.002678,0.000431,0.017277
35484000,0.0324,0.013523,0.002678,0.000431,0.016454
35485000,0.0324,0.013523,0.002678,0.000431,0.013398
35486000,0.0324,0.013523,0.002678,0.000431,0.014809
35487000,0.0324,0.013523,0.002678,0.000431,0.013751
35488000,0.0324,0.013523,0.002678,0.000431,0.012105
35489000,0.0324,0.013523,0.002678,0.000431,0.012105
35490000,0.0324,0.013523,0.002678,0.000431,0.013163
35491000,0.0324,0.013523,0.002678,0.000431,0.011988
35492000,0.0324,0.013523,0.002678,0.000431,0.009990
35493000,0.0324,0.013523,0.002678,0.000431,0.010225
35494000,0.0324,0.013523,0.002678,0.000431,0.010695
35495000,0.0324,0.013523,0.002678,0.000431,0.009637
35496000,0.0324,0.013523,0.002678,0.000431,0.010695
35497000,0.0324,0.013523,0.002678,0.000431,0.009402
35498000,0.0324,0.013523,0.002678,0.000431,0.010578
35499000,0.0324,0.013523,0.002678,0.000431,0.010578
35500000,0.0324,0.013523,0.002678,0.000431,0.010813
35501000,0.0324,0.013523,0.002678,0.000431,0.011048
35502000,0.0324,0.013523,0.002678,0.000431,0.011753
35503000,0.0324,0.013523,0.002678,0.000431,0.010225
35504000,0.0324,0.013523,0.002678,0.000431,0.006582
35505000,0.0324,0.013523,0.002678,0.000431,0.006934
35506000,0.0324,0.013523,0.002678,0.000431,0.007169
35507000,0.0324,0.013523,0.002678,0.000431,0.006464
35508000,0.0324,0.013523,0.002678,0.000431,0.007052
35509000,0.0324,0.013523,0.002678,0.000431,0.008580
35510000,0.0324,0.013523,0.002678,0.000431,0.006229
35511000,0.0324,0.013523,0.002678,0.000431,0.005641
35512000,0.0324,0.013523,0.002678,0.000431,0.006229
35513000,0.0324,0.013523,0.002678,0.000431,0.007287
35514000,0.0324,0.013523,0.002678,0.000431,0.005171
35515000,0.0324,0.013523,0.002678,0.000431,0.005289
35516000,0.0324,0.013523,0.002678,0.000431,0.009637
35517000,0.0324,0.013523,0.002678,0.000431,0.003526
35518000,0.0324,0.013523,0.002678,0.000431,0.003291
35519000,0.0324,0.013523,0.002678,0.000431,0.003526
35520000,0.0324,0.013523,0.002678,0.000431,0.003291
35521000,0.0324,0.013523,0.002678,0.000431,0.003526
35522000,0.0324,0.013523,0.002678,0.000431,0.003408
35523000,0.0324,0.013523,0.002678,0.000431,0.003526
35524000,0.0324,0.013523,0.002678,0.000431,0.003408
35525000,0.0324,0.013523,0.002678,0.000431,0.003291
35526000,0.0324,0.013523,0.002678,0.000431,0.003526
35527000,0.0324,0.013523,0.002678,0.000431,0.003291
35528000,0.0324,0.013523,0.002678,0.000431,0.003526
35529000,0.0324,0.013523,0.002678,0.000431,0.003526
35530000,0.0324,0.013523,0.002678,0.000431,0.003408
35531000,0.0324,0.013523,0.002678,0.000431,0.003526
35532000,0.0324,0.013523,0.002678,0.000431,0.003291
35533000,0.0324,0.013523,0.002678,0.000431,0.003408
35534000,0.0324,0.013523,0.002678,0.000431,0.003408
35535000,0.0324,0.013523,0.002678,0.000431,0.003643
35536000,0.0324,0.013523,0.002678,0.000431,0.003173
35537000,0.0324,0.013523,0.002678,0.000431,0.003643
35538000,0.0324,0.013523,0.002678,0.000431,0.003173
35539000,0.0324,0.013523,0.002678,0.000431,0.003526
35540000,0.0324,0.013523,0.002678,0.000431,0.003643
35541000,0.0324,0.013523,0.002678,0.000431,0.003173
35542000,0.0324,0.013523,0.002678,0.000431,0.003526
35543000,0.0324,0.013523,0.002678,0.000431,0.003408
35544000,0.0324,0.013523,0.002678,0.000431,0.003526
35545000,0.0324,0.013523,0.002678,0.000431,0.003408
35546000,0.0324,0.013523,0.002678,0.000431,0.003291
35547000,0.0324,0.013523,0.002678,0.000431,0.003408
35548000,0.0324,0.013523,0.002678,0.000431,0.003408
35549000,0.0324,0.013523,0.002678,0.000431,0.003761
35550000,0.0324,0.013523,0.002678,0.000431,0.003408
35551000,0.0324,0.013523,0.002678,0.000431,0.003408
35552000,0.0324,0.013523,0.002678,0.000431,0.003291
35553000,0.0324,0.013523,0.002678,0.000431,0.003408
35554000,0.0324,0.013523,0.002678,0.000431,0.003643
35555000,0.0324,0.013523,0.002678,0.000431,0.003173
35556000,0.0324,0.013523,0.002678,0.000431,0.003526
35557000,0.0324,0.013523,0.002678,0.000431,0.003291
35558000,0.0324,0.013523,0.002678,0.000431,0.003643
35559000,0.0324,0.013523,0.002678,0.000431,0.003408
35560000,0.0324,0.013523,0.002678,0.000431,0.003408
35561000,0.0324,0.013523,0.002678,0.000431,0.003291
35562000,0.0324,0.013523,0.002678,0.000431,0.003526
35563000,0.0324,0.013523,0.002678,0.000431,0.003526
35564000,0.0324,0.013523,0.002678,0.000431,0.005524
35565000,0.0324,0.013523,0.002678,0.000431,0.002586
35566000,0.0324,0.013523,0.002678,0.000431,0.002586
35567000,0.0324,0.013523,0.002678,0.000431,0.002586
35568000,0.0324,0.013523,0.002678,0.000431,0.002586
35569000,0.0324,0.013523,0.002678,0.000431,0.002586
35570000,0.0324,0.013523,0.002678,0.000431,0.005759
35571000,0.0324,0.013523,0.002678,0.000431,0.001880
35572000,0.0324,0.013523,0.002678,0.000431,0.001645
35573000,0.0324,0.013523,0.002678,0.000431,0.001645
35574000,0.0324,0.013523,0.002678,0.000431,0.001880
35575000,0.0324,0.013523,0.002678,0.000431,0.001645
35576000,0.0324,0.013523,0.002678,0.000431,0.001763
35577000,0.0324,0.013523,0.002678,0.000431,0.001645
35578000,0.0324,0.013523,0.002678,0.000431,0.001763
35579000,0.0324,0.013523,0.002678,0.000431,0.001645
35580000,0.0324,0.013523,0.002678,0.000431,0.001645
35581000,0.0324,0.013523,0.002678,0.000431,0.001763
35582000,0.0324,0.013523,0.002678,0.000431,0.001763
35583000,0.0324,0.013523,0.002678,0.000431,0.001880
35584000,0.0324,0.013523,0.002678,0.000431,0.001528
35585000,0.0324,0.013523,0.002678,0.000431,0.003291
35586000,0.0324,0.013523,0.002678,0.000431,0.000940
35587000,0.0324,0.013523,0.002678,0.000431,0.000940
35588000,0.0324,0.013523,0.002678,0.000431,0.000823
35589000,0.0324,0.013523,0.002678,0.000431,0.000940
35590000,0.0324,0.013523,0.002678,0.000431,0.000823
35591000,0.0324,0.013523,0.002678,0.000431,0.000940
35592000,0.0324,0.013523,0.002678,0.000431,0.000823
35593000,0.0324,0.013523,0.002678,0.000431,0.000823
35594000,0.0324,0.013523,0.002678,0.000431,0.000940
35595000,0.0324,0.013523,0.002678,0.000431,0.000940
35596000,0.0324,0.013523,0.002678,0.000431,0.000823
35597000,0.0324,0.013523,0.002678,0.000431,0.000823
35598000,0.0324,0.013523,0.002678,0.000431,0.000940
35599000,0.0324,0.013523,0.002678,0.000431,0.000940
35600000,0.0324,0.013523,0.002678,0.000431,0.000705
35601000,0.0324,0.013523,0.002678,0.000431,0.000940
35602000,0.0324,0.013523,0.002678,0.000431,0.000940
35603000,0.0324,0.013523,0.002678,0.000431,0.000940
35604000,0.0324,0.013523,0.002678,0.000431,0.000823
35605000,0.0324,0.013523,0.002678,0.000431,0.000823
35606000,0.0324,0.013523,0.002678,0.000431,0.000940
35607000,0.0324,0.013523,0.002678,0.000431,0.000823
35608000,0.0324,0.013523,0.002678,0.000431,0.000940
35609000,0.0324,0.013523,0.002678,0.000431,0.000823
35610000,0.0324,0.013523,0.002678,0.000431,0.000940
35611000,0.0324,0.013523,0.002678,0.000431,0.000823
35612000,0.0324,0.013523,0.002678,0.000431,0.000823
35613000,0.0324,0.013523,0.002678,0.000431,0.000940
35614000,0.0324,0.013523,0.002678,0.000431,0.000940
35615000,0.0324,0.013523,0.002678,0.000431,0.000823
35616000,0.0324,0.013523,0.002678,0.000431,0.000823
35617000,0.0324,0.013523,0.002678,0.000431,0.000940
35618000,0.0324,0.013523,0.002678,0.000431,0.000940
35619000,0.0324,0.013523,0.002678,0.000431,0.000823
35620000,0.0324,0.013523,0.002678,0.000431,0.001058
35621000,0.0324,0.013523,0.002678,0.000431,0.000705
35622000,0.0324,0.013523,0.002678,0.000431,0.000940
35623000,0.0324,0.013523,0.002678,0.000431,0.000940
35624000,0.0324,0.013523,0.002678,0.000431,0.000823
35625000,0.0324,0.013523,0.002678,0.000431,0.000940
35626000,0.0324,0.013523,0.002678,0.000431,0.070987
35627000,0.0324,0.013523,0.002678,0.000431,0.523706
35628000,0.0324,0.013523,0.002678,0.000431,0.558259
35629000,0.0324,0.013523,0.002678,0.000431,0.133512
35630000,0.0324,0.013523,0.002678,0.000431,0.133042
35631000,0.0324,0.013523,0.002678,0.000431,0.571657
35632000,0.0324,0.013523,0.002678,0.000431,0.229180
35633000,0.0324,0.013523,0.002678,0.000431,0.311215
35634000,0.0324,0.013523,0.002678,0.000431,0.299697
35635000,0.0324,0.013523,0.002678,0.000431,0.144442
35636000,0.0324,0.013523,0.002678,0.000431,0.167243
35637000,0.0324,0.013523,0.002678,0.000431,0.100604
35638000,0.0324,0.013523,0.002678,0.000431,0.470348
35639000,0.0324,0.013523,0.002678,0.000431,0.089674
35640000,0.0324,0.013523,0.002678,0.000431,0.049597
35641000,0.0324,0.013523,0.002678,0.000431,0.039960
35642000,0.0324,0.013523,0.002678,0.000431,0.037374
35643000,0.0324,0.013523,0.002678,0.000431,0.043956
35644000,0.0324,0.013523,0.002678,0.000431,0.033260
35645000,0.0324,0.013523,0.002678,0.000431,0.025621
35646000,0.0324,0.013523,0.002678,0.000431,0.025974
35647000,0.0324,0.013523,0.002678,0.000431,0.022800
35648000,0.0324,0.013523,0.002678,0.000431,0.024681
35649000,0.0324,0.013523,0.002678,0.000431,0.021155
35650000,0.0324,0.013523,0.002678,0.000431,0.017512
35651000,0.0324,0.013523,0.002678,0.000431,0.018099
35652000,0.0324,0.013523,0.002678,0.000431,0.012928
35653000,0.0324,0.013523,0.002678,0.000431,0.011870
35654000,0.0324,0.013523,0.002678,0.000431,0.012340
35655000,0.0324,0.013523,0.002678,0.000431,0.009285
35656000,0.0324,0.013523,0.002678,0.000431,0.007992
35657000,0.0324,0.013523,0.002678,0.000431,0.009637
35658000,0.0324,0.013523,0.002678,0.000431,0.008815
35659000,0.0324,0.013523,0.002678,0.000431,0.008815
35660000,0.0324,0.013523,0.002678,0.000431,0.009402
35661000,0.0324,0.013523,0.002678,0.000431,0.007169
35662000,0.0324,0.013523,0.002678,0.000431,0.007639
35663000,0.0324,0.013523,0.002678,0.000431,0.009755
35664000,0.0324,0.013523,0.002678,0.000431,0.007052
35665000,0.0324,0.013523,0.002678,0.000431,0.007169
35666000,0.0324,0.013523,0.002678,0.000431,0.005171
35667000,0.0324,0.013523,0.002678,0.000431,0.006111
35668000,0.0324,0.013523,0.002678,0.000431,0.006229
35669000,0.0324,0.013523,0.002678,0.000431,0.004936
35670000,0.0324,0.013523,0.002678,0.000431,0.006111
35671000,0.0324,0.013523,0.002678,0.000431,0.005406
35672000,0.0324,0.013523,0.002678,0.000431,0.005876
35673000,0.0324,0.013523,0.002678,0.000431,0.005759
35674000,0.0324,0.013523,0.002678,0.000431,0.005641
35675000,0.0324,0.013523,0.002678,0.000431,0.005876
35676000,0.0324,0.013523,0.002678,0.000431,0.005406
35677000,0.0324,0.013523,0.002678,0.000431,0.005759
35678000,0.0324,0.013523,0.002678,0.000431,0.006111
35679000,0.0324,0.013523,0.002678,0.000431,0.005406
35680000,0.0324,0.013523,0.002678,0.000431,0.005524
35681000,0.0324,0.013523,0.002678,0.000431,0.005994
35682000,0.0324,0.013523,0.002678,0.000431,0.005994
35683000,0.0324,0.013523,0.002678,0.000431,0.005759
35684000,0.0324,0.013523,0.002678,0.000431,0.005289
35685000,0.0324,0.013523,0.002678,0.000431,0.006347
35686000,0.0324,0.013523,0.002678,0.000431,0.005524
35687000,0.0324,0.013523,0.002678,0.000431,0.005524
35688000,0.0324,0.013523,0.002678,0.000431,0.006111
35689000,0.0324,0.013523,0.002678,0.000431,0.005641
35690000,0.0324,0.013523,0.002678,0.000431,0.005876
35691000,0.0324,0.013523,0.002678,0.000431,0.006934
35692000,0.0324,0.013523,0.002678,0.000431,0.004701
35693000,0.0324,0.013523,0.002678,0.000431,0.005171
35694000,0.0324,0.013523,0.002678,0.000431,0.004349
35695000,0.0324,0.013523,0.002678,0.000431,0.005171
35696000,0.0324,0.013523,0.002678,0.000431,0.005054
35697000,0.0324,0.013523,0.002678,0.000431,0.004701
35698000,0.0324,0.013523,0.002678,0.000431,0.004819
35699000,0.0324,0.013523,0.002678,0.000431,0.004466
35700000,0.0324,0.013523,0.002678,0.000431,0.004231
35701000,0.0324,0.013523,0.002678,0.000431,0.004113
35702000,0.0324,0.013523,0.002678,0.000431,0.006582
35703000,0.0324,0.013523,0.002678,0.000431,0.003291
35704000,0.0324,0.013523,0.002678,0.000431,0.003291
35705000,0.0324,0.013523,0.002678,0.000431,0.003291
35706000,0.0324,0.013523,0.002678,0.000431,0.003291
35707000,0.0324,0.013523,0.002678,0.000431,0.003408
35708000,0.0324,0.013523,0.002678,0.000431,0.003173
35709000,0.0324,0.013523,0.002678,0.000431,0.003291
35710000,0.0324,0.013523,0.002678,0.000431,0.003408
35711000,0.0324,0.013523,0.002678,0.000431,0.003408
35712000,0.0324,0.013523,0.002678,0.000431,0.003056
35713000,0.0324,0.013523,0.002678,0.000431,0.004701
35714000,0.0324,0.013523,0.002678,0.000431,0.199915
35715000,0.0324,0.013523,0.002678,0.000431,0.477635
35716000,0.0324,0.013523,0.002678,0.000431,0.495499
35717000,0.0324,0.013523,0.002678,0.000431,0.133982
35718000,0.0324,0.013523,0.002678,0.000431,0.132572
35719000,0.0324,0.013523,0.002678,0.000431,0.572127
35720000,0.0324,0.013523,0.002678,0.000431,0.276896
35721000,0.0324,0.013523,0.002678,0.000431,0.236819
35722000,0.0324,0.013523,0.002678,0.000431,0.298757
35723000,0.0324,0.013523,0.002678,0.000431,0.141857
35724000,0.0324,0.013523,0.002678,0.000431,0.155725
35725000,0.0324,0.013523,0.002678,0.000431,0.100016
35726000,0.0324,0.013523,0.002678,0.000431,0.432621
35727000,0.0324,0.013523,0.002678,0.000431,0.142562
35728000,0.0324,0.013523,0.002678,0.000431,0.033613
35729000,0.0324,0.013523,0.002678,0.000431,0.032203
35730000,0.0324,0.013523,0.002678,0.000431,0.016571
35731000,0.0324,0.013523,0.002678,0.000431,0.025034
35732000,0.0324,0.013523,0.002678,0.000431,0.017159
35733000,0.0324,0.013523,0.002678,0.000431,0.011048
35734000,0.0324,0.013523,0.002678,0.000431,0.007052
35735000,0.0324,0.013523,0.002678,0.000431,0.006582
35736000,0.0324,0.013523,0.002678,0.000431,0.007052
35737000,0.0324,0.013523,0.002678,0.000431,0.007522
35738000,0.0324,0.013523,0.002678,0.000431,0.007522
35739000,0.0324,0.013523,0.002678,0.000431,0.005759
35740000,0.0324,0.013523,0.002678,0.000431,0.005759
35741000,0.0324,0.013523,0.002678,0.000431,0.007522
35742000,0.0324,0.013523,0.002678,0.000431,0.004819
35743000,0.0324,0.013523,0.002678,0.000431,0.007052
35744000,0.0324,0.013523,0.002678,0.000431,0.003643
35745000,0.0324,0.013523,0.002678,0.000431,0.004701
35746000,0.0324,0.013523,0.002678,0.000431,0.004231
35747000,0.0324,0.013523,0.002678,0.000431,0.004231
35748000,0.0324,0.013523,0.002678,0.000431,0.003996
35749000,0.0324,0.013523,0.002678,0.000431,0.004466
35750000,0.0324,0.013523,0.002678,0.000431,0.005994
35751000,0.0324,0.013523,0.002678,0.000431,0.003173
35752000,0.0324,0.013523,0.002678,0.000431,0.003408
35753000,0.0324,0.013523,0.002678,0.000431,0.003526
35754000,0.0324,0.013523,0.002678,0.000431,0.003408
35755000,0.0324,0.013523,0.002678,0.000431,0.003643
35756000,0.0324,0.013523,0.002678,0.000431,0.003291
35757000,0.0324,0.013523,0.002678,0.000431,0.003526
35758000,0.0324,0.013523,0.002678,0.000431,0.003291
35759000,0.0324,0.013523,0.002678,0.000431,0.003526
35760000,0.0324,0.013523,0.002678,0.000431,0.004701
35761000,0.0324,0.013523,0.002678,0.000431,0.002703
35762000,0.0324,0.013523,0.002678,0.000431,0.002703
35763000,0.0324,0.013523,0.002678,0.000431,0.002351
35764000,0.0324,0.013523,0.002678,0.000431,0.002703
35765000,0.0324,0.013523,0.002678,0.000431,0.002703
35766000,0.0324,0.013523,0.002678,0.000431,0.002703
35767000,0.0324,0.013523,0.002678,0.000431,0.002233
35768000,0.0324,0.013523,0.002678,0.000431,0.002703
35769000,0.0324,0.013523,0.002678,0.000431,0.002703
35770000,0.0324,0.013523,0.002678,0.000431,0.002586
35771000,0.0324,0.013523,0.002678,0.000431,0.002468
35772000,0.0324,0.013523,0.002678,0.000431,0.002586
35773000,0.0324,0.013523,0.002678,0.000431,0.002586
35774000,0.0324,0.013523,0.002678,0.000431,0.002703
35775000,0.0324,0.013523,0.002678,0.000431,0.002468
35776000,0.0324,0.013523,0.002678,0.000431,0.002703
35777000,0.0324,0.013523,0.002678,0.000431,0.002586
35778000,0.0324,0.013523,0.002678,0.000431,0.002351
35779000,0.0324,0.013523,0.002678,0.000431,0.002703
35780000,0.0324,0.013523,0.002678,0.000431,0.002821
35781000,0.0324,0.013523,0.002678,0.000431,0.002468
35782000,0.0324,0.013523,0.002678,0.000431,0.002468
35783000,0.0324,0.013523,0.002678,0.000431,0.002586
35784000,0.0324,0.013523,0.002678,0.000431,0.002703
35785000,0.0324,0.013523,0.002678,0.000431,0.002468
35786000,0.0324,0.013523,0.002678,0.000431,0.002586
35787000,0.0324,0.013523,0.002678,0.000431,0.002586
35788000,0.0324,0.013523,0.002678,0.000431,0.002586
35789000,0.0324,0.013523,0.002678,0.000431,0.002586
35790000,0.0324,0.013523,0.002678,0.000431,0.002468
35791000,0.0324,0.013523,0.002678,0.000431,0.002586
35792000,0.0324,0.013523,0.002678,0.000431,0.003643
35793000,0.0324,0.013523,0.002678,0.000431,0.001763
35794000,0.0324,0.013523,0.002678,0.000431,0.001880
35795000,0.0324,0.013523,0.002678,0.000431,0.001528
35796000,0.0324,0.013523,0.002678,0.000431,0.001763
35797000,0.0324,0.013523,0.002678,0.000431,0.001763
35798000,0.0324,0.013523,0.002678,0.000431,0.002586
35799000,0.0324,0.013523,0.002678,0.000431,0.001880
35800000,0.0324,0.013523,0.002678,0.000431,0.000940
35801000,0.0324,0.013523,0.002678,0.000431,0.000940
35802000,0.0324,0.013523,0.002678,0.000431,0.000940
35803000,0.0324,0.013523,0.002678,0.000431,0.000705
35804000,0.0324,0.013523,0.002678,0.000431,0.000940
35805000,0.0324,0.013523,0.002678,0.000431,0.000940
35806000,0.0324,0.013523,0.002678,0.000431,0.000823
35807000,0.0324,0.013523,0.002678,0.000431,0.000823
35808000,0.0324,0.013523,0.002678,0.000431,0.000940
35809000,0.0324,0.013523,0.002678,0.000431,0.183932
35810000,0.0324,0.013523,0.002678,0.000431,0.441553
35811000,0.0324,0.013523,0.002678,0.000431,0.521355
35812000,0.0324,0.013523,0.002678,0.000431,0.133982
35813000,0.0324,0.013523,0.002678,0.000431,0.130691
35814000,0.0324,0.013523,0.002678,0.000431,0.585643
35815000,0.0324,0.013523,0.002678,0.000431,0.279600
35816000,0.0324,0.013523,0.002678,0.000431,0.224244
35817000,0.0324,0.013523,0.002678,0.000431,0.269492
35818000,0.0324,0.013523,0.002678,0.000431,0.139859
35819000,0.0324,0.013523,0.002678,0.000431,0.148086
35820000,0.0324,0.013523,0.002678,0.000431,0.127636
35821000,0.0324,0.013523,0.002678,0.000431,0.257739
35822000,0.0324,0.013523,0.002678,0.000431,0.360929
35823000,0.0324,0.013523,0.002678,0.000431,0.031380
35824000,0.0324,0.013523,0.002678,0.000431,0.030792
35825000,0.0324,0.013523,0.002678,0.000431,0.020802
35826000,0.0324,0.013523,0.002678,0.000431,0.022565
35827000,0.0324,0.013523,0.002678,0.000431,0.019040
35828000,0.0324,0.013523,0.002678,0.000431,0.012811
35829000,0.0324,0.013523,0.002678,0.000431,0.009755
35830000,0.0324,0.013523,0.002678,0.000431,0.009402
35831000,0.0324,0.013523,0.002678,0.000431,0.010578
35832000,0.0324,0.013523,0.002678,0.000431,0.008345
35833000,0.0324,0.013523,0.002678,0.000431,0.007874
35834000,0.0324,0.013523,0.002678,0.000431,0.006582
35835000,0.0324,0.013523,0.002678,0.000431,0.007992
35836000,0.0324,0.013523,0.002678,0.000431,0.006464
35837000,0.0324,0.013523,0.002678,0.000431,0.004936
35838000,0.0324,0.013523,0.002678,0.000431,0.005289
35839000,0.0324,0.013523,0.002678,0.000431,0.006229
35840000,0.0324,0.013523,0.002678,0.000431,0.004584
35841000,0.0324,0.013523,0.002678,0.000431,0.006229
35842000,0.0324,0.013523,0.002678,0.000431,0.003526
35843000,0.0324,0.013523,0.002678,0.000431,0.003526
35844000,0.0324,0.013523,0.002678,0.000431,0.003526
35845000,0.0324,0.013523,0.002678,0.000431,0.003643
35846000,0.0324,0.013523,0.002678,0.000431,0.003408
35847000,0.0324,0.013523,0.002678,0.000431,0.003526
35848000,0.0324,0.013523,0.002678,0.000431,0.003408
35849000,0.0324,0.013523,0.002678,0.000431,0.003643
35850000,0.0324,0.013523,0.002678,0.000431,0.003408
35851000,0.0324,0.013523,0.002678,0.000431,0.003526
35852000,0.0324,0.013523,0.002678,0.000431,0.003526
35853000,0.0324,0.013523,0.002678,0.000431,0.003526
35854000,0.0324,0.013523,0.002678,0.000431,0.003526
35855000,0.0324,0.013523,0.002678,0.000431,0.003643
35856000,0.0324,0.013523,0.002678,0.000431,0.005171
35857000,0.0324,0.013523,0.002678,0.000431,0.002703
35858000,0.0324,0.013523,0.002678,0.000431,0.002586
35859000,0.0324,0.013523,0.002678,0.000431,0.002821
35860000,0.0324,0.013523,0.002678,0.000431,0.002468
35861000,0.0324,0.013523,0.002678,0.000431,0.002703
35862000,0.0324,0.013523,0.002678,0.000431,0.002586
35863000,0.0324,0.013523,0.002678,0.000431,0.002586
35864000,0.0324,0.013523,0.002678,0.000431,0.002586
35865000,0.0324,0.013523,0.002678,0.000431,0.002821
35866000,0.0324,0.013523,0.002678,0.000431,0.002468
35867000,0.0324,0.013523,0.002678,0.000431,0.002703
35868000,0.0324,0.013523,0.002678,0.000431,0.002586
35869000,0.0324,0.013523,0.002678,0.000431,0.002703
35870000,0.0324,0.013523,0.002678,0.000431,0.002468
35871000,0.0324,0.013523,0.002678,0.000431,0.002821
35872000,0.0324,0.013523,0.002678,0.000431,0.002703
35873000,0.0324,0.013523,0.002678,0.000431,0.002468
35874000,0.0324,0.013523,0.002678,0.000431,0.002586
35875000,0.0324,0.013523,0.002678,0.000431,0.002703
35876000,0.0324,0.013523,0.002678,0.000431,0.002703
35877000,0.0324,0.013523,0.002678,0.000431,0.002586
35878000,0.0324,0.013523,0.002678,0.000431,0.002703
35879000,0.0324,0.013523,0.002678,0.000431,0.002468
35880000,0.0324,0.013523,0.002678,0.000431,0.002703
35881000,0.0324,0.013523,0.002678,0.000431,0.002703
35882000,0.0324,0.013523,0.002678,0.000431,0.002586
35883000,0.0324,0.013523,0.002678,0.000431,0.002586
35884000,0.0324,0.013523,0.002678,0.000431,0.002586
35885000,0.0324,0.013523,0.002678,0.000431,0.002586
35886000,0.0324,0.013523,0.002678,0.000431,0.002821
35887000,0.0324,0.013523,0.002678,0.000431,0.002586
35888000,0.0324,0.013523,0.002678,0.000431,0.002703
35889000,0.0324,0.013523,0.002678,0.000431,0.002468
35890000,0.0324,0.013523,0.002678,0.000431,0.002703
35891000,0.0324,0.013523,0.002678,0.000431,0.002586
35892000,0.0324,0.013523,0.002678,0.000431,0.002703
35893000,0.0324,0.013523,0.002678,0.000431,0.002586
35894000,0.0324,0.013523,0.002678,0.000431,0.002703
35895000,0.0324,0.013523,0.002678,0.000431,0.002703
35896000,0.0324,0.013523,0.002678,0.000431,0.002586
35897000,0.0324,0.013523,0.002678,0.000431,0.002468
35898000,0.0324,0.013523,0.002678,0.000431,0.002703
35899000,0.0324,0.013523,0.002678,0.000431,0.002703
35900000,0.0324,0.013523,0.002678,0.000431,0.002703
35901000,0.0324,0.013523,0.002678,0.000431,0.002586
35902000,0.0324,0.013523,0.002678,0.000431,0.002586
35903000,0.0324,0.013523,0.002678,0.000431,0.003996
35904000,0.0324,0.013523,0.002678,0.000431,0.001880
35905000,0.0324,0.013523,0.002678,0.000431,0.001880
35906000,0.0324,0.013523,0.002678,0.000431,0.001528
35907000,0.0324,0.013523,0.002678,0.000431,0.001763
35908000,0.0324,0.013523,0.002678,0.000431,0.001880
35909000,0.0324,0.013523,0.002678,0.000431,0.001763
35910000,0.0324,0.013523,0.002678,0.000431,0.001528
35911000,0.0324,0.013523,0.002678,0.000431,0.001880
35912000,0.0324,0.013523,0.002678,0.000431,0.001880
35913000,0.0324,0.013523,0.002678,0.000431,0.001763
35914000,0.0324,0.013523,0.002678,0.000431,0.001528
35915000,0.0324,0.013523,0.002678,0.000431,0.001880
35916000,0.0324,0.013523,0.002678,0.000431,0.001763
35917000,0.0324,0.013523,0.002678,0.000431,0.001763
35918000,0.0324,0.013523,0.002678,0.000431,0.001645
35919000,0.0324,0.013523,0.002678,0.000431,0.002586
35920000,0.0324,0.013523,0.002678,0.000431,0.001998
35921000,0.0324,0.013523,0.002678,0.000431,0.000823
35922000,0.0324,0.013523,0.002678,0.000431,0.000823
35923000,0.0324,0.013523,0.002678,0.000431,0.000940
35924000,0.0324,0.013523,0.002678,0.000431,0.000823
35925000,0.0324,0.013523,0.002678,0.000431,0.000940
35926000,0.0324,0.013523,0.002678,0.000431,0.000823
35927000,0.0324,0.013523,0.002678,0.000431,0.000940
35928000,0.0324,0.013523,0.002678,0.000431,0.000823
35929000,0.0324,0.013523,0.002678,0.000431,0.000823
35930000,0.0324,0.013523,0.002678,0.000431,0.000940
35931000,0.0324,0.013523,0.002678,0.000431,0.000940
35932000,0.0324,0.013523,0.002678,0.000431,0.000940
35933000,0.0324,0.013523,0.002678,0.000431,0.000705
35934000,0.0324,0.013523,0.002678,0.000431,0.000940
35935000,0.0324,0.013523,0.002678,0.000431,0.000940
35936000,0.0324,0.013523,0.002678,0.000431,0.000823
35937000,0.0324,0.013523,0.002678,0.000431,0.000823
35938000,0.0324,0.013523,0.002678,0.000431,0.000940
35939000,0.0324,0.013523,0.002678,0.000431,0.000823
35940000,0.0324,0.013523,0.002678,0.000431,0.000940
35941000,0.0324,0.013523,0.002678,0.000431,0.000823
35942000,0.0324,0.013523,0.002678,0.000431,0.000940
35943000,0.0324,0.013523,0.002678,0.000431,0.000823
35944000,0.0324,0.013523,0.002678,0.000431,0.000823
35945000,0.0324,0.013523,0.002678,0.000431,0.000940
35946000,0.0324,0.013523,0.002678,0.000431,0.000940
35947000,0.0324,0.013523,0.002678,0.000431,0.000823
35948000,0.0324,0.013523,0.002678,0.000431,0.000823
35949000,0.0324,0.013523,0.002678,0.000431,0.000940
35950000,0.0324,0.013523,0.002678,0.000431,0.000940
35951000,0.0324,0.013523,0.002678,0.000431,0.000705
35952000,0.0324,0.013523,0.002678,0.000431,0.000940
35953000,0.0324,0.013523,0.002678,0.000431,0.000940
35954000,0.0324,0.013523,0.002678,0.000431,0.000940
35955000,0.0324,0.013523,0.002678,0.000431,0.000823
35956000,0.0324,0.013523,0.002678,0.000431,0.000823
35957000,0.0324,0.013523,0.002678,0.000431,0.000940
35958000,0.0324,0.013523,0.002678,0.000431,0.000823
35959000,0.0324,0.013523,0.002678,0.000431,0.000940
35960000,0.0324,0.013523,0.002678,0.000431,0.000823
35961000,0.0324,0.013523,0.002678,0.000431,0.000940
35962000,0.0324,0.013523,0.002678,0.000431,0.000823
35963000,0.0324,0.013523,0.002678,0.000431,0.000823
35964000,0.0324,0.013523,0.002678,0.000431,0.000940
35965000,0.0324,0.013523,0.002678,0.000431,0.000940
35966000,0.0324,0.013523,0.002678,0.000431,0.000823
35967000,0.0324,0.013523,0.002678,0.000431,0.000823
35968000,0.0324,0.013523,0.002678,0.000431,0.000940
35969000,0.0324,0.013523,0.002678,0.000431,0.000940
35970000,0.0324,0.013523,0.002678,0.000431,0.000705
35971000,0.0324,0.013523,0.002678,0.000431,0.000940
35972000,0.0324,0.013523,0.002678,0.000431,0.013986
35973000,0.0324,0.013523,0.002678,0.000431,0.498672
35974000,0.0324,0.013523,0.002678,0.000431,0.588346
35975000,0.0324,0.013523,0.002678,0.000431,0.134922
35976000,0.0324,0.013523,0.002678,0.000431,0.132572
35977000,0.0324,0.013523,0.002678,0.000431,0.388431
35978000,0.0324,0.013523,0.002678,0.000431,0.377618
35979000,0.0324,0.013523,0.002678,0.000431,0.232001
35980000,0.0324,0.013523,0.002678,0.000431,0.308159
35981000,0.0324,0.013523,0.002678,0.000431,0.176410
35982000,0.0324,0.013523,0.002678,0.000431,0.145852
35983000,0.0324,0.013523,0.002678,0.000431,0.163717
35984000,0.0324,0.013523,0.002678,0.000431,0.147733
35985000,0.0324,0.013523,0.002678,0.000431,0.446019
35986000,0.0324,0.013523,0.002678,0.000431,0.055473
35987000,0.0324,0.013523,0.002678,0.000431,0.039607
35988000,0.0324,0.013523,0.002678,0.000431,0.035611
35989000,0.0324,0.013523,0.002678,0.000431,0.033025
35990000,0.0324,0.013523,0.002678,0.000431,0.030557
35991000,0.0324,0.013523,0.002678,0.000431,0.030792
35992000,0.0324,0.013523,0.002678,0.000431,0.022330
35993000,0.0324,0.013523,0.002678,0.000431,0.021508
35994000,0.0324,0.013523,0.002678,0.000431,0.022683
35995000,0.0324,0.013523,0.002678,0.000431,0.019980
35996000,0.0324,0.013523,0.002678,0.000431,0.016807
35997000,0.0324,0.013523,0.002678,0.000431,0.014456
35998000,0.0324,0.013523,0.002678,0.000431,0.015279
35999000,0.0324,0.013523,0.002678,0.000431,0.014456
