Cycle,Area(mm^2),PeakDynamic(W),SubthresholdLeakage(W),GateLeakage(W),RunTimeDynamic(W)
49000000,0.0324,0.013523,0.002678,0.000431,0.000823
49001000,0.0324,0.013523,0.002678,0.000431,0.000823
49002000,0.0324,0.013523,0.002678,0.000431,0.000823
49003000,0.0324,0.013523,0.002678,0.000431,0.000823
49004000,0.0324,0.013523,0.002678,0.000431,0.000823
49005000,0.0324,0.013523,0.002678,0.000431,0.000823
49006000,0.0324,0.013523,0.002678,0.000431,0.000940
49007000,0.0324,0.013523,0.002678,0.000431,0.000705
49008000,0.0324,0.013523,0.002678,0.000431,0.000940
49009000,0.0324,0.013523,0.002678,0.000431,0.000705
49010000,0.0324,0.013523,0.002678,0.000431,0.000940
49011000,0.0324,0.013523,0.002678,0.000431,0.000940
49012000,0.0324,0.013523,0.002678,0.000431,0.000705
49013000,0.0324,0.013523,0.002678,0.000431,0.000940
49014000,0.0324,0.013523,0.002678,0.000431,0.000705
49015000,0.0324,0.013523,0.002678,0.000431,0.000940
49016000,0.0324,0.013523,0.002678,0.000431,0.000823
49017000,0.0324,0.013523,0.002678,0.000431,0.000823
49018000,0.0324,0.013523,0.002678,0.000431,0.000823
49019000,0.0324,0.013523,0.002678,0.000431,0.000823
49020000,0.0324,0.013523,0.002678,0.000431,0.000940
49021000,0.0324,0.013523,0.002678,0.000431,0.000705
49022000,0.0324,0.013523,0.002678,0.000431,0.198388
49023000,0.0324,0.013523,0.002678,0.000431,0.597278
49024000,0.0324,0.013523,0.002678,0.000431,0.364807
49025000,0.0324,0.013523,0.002678,0.000431,0.130221
49026000,0.0324,0.013523,0.002678,0.000431,0.133042
49027000,0.0324,0.013523,0.002678,0.000431,0.602332
49028000,0.0324,0.013523,0.002678,0.000431,0.266789
49029000,0.0324,0.013523,0.002678,0.000431,0.290412
49030000,0.0324,0.013523,0.002678,0.000431,0.285241
49031000,0.0324,0.013523,0.002678,0.000431,0.139506
49032000,0.0324,0.013523,0.002678,0.000431,0.152552
49033000,0.0324,0.013523,0.002678,0.000431,0.154785
49034000,0.0324,0.013523,0.002678,0.000431,0.423572
49035000,0.0324,0.013523,0.002678,0.000431,0.025269
49036000,0.0324,0.013523,0.002678,0.000431,0.019157
49037000,0.0324,0.013523,0.002678,0.000431,0.016336
49038000,0.0324,0.013523,0.002678,0.000431,0.014809
49039000,0.0324,0.013523,0.002678,0.000431,0.014809
49040000,0.0324,0.013523,0.002678,0.000431,0.014221
49041000,0.0324,0.013523,0.002678,0.000431,0.017042
49042000,0.0324,0.013523,0.002678,0.000431,0.011870
49043000,0.0324,0.013523,0.002678,0.000431,0.009872
49044000,0.0324,0.013523,0.002678,0.000431,0.009637
49045000,0.0324,0.013523,0.002678,0.000431,0.009990
49046000,0.0324,0.013523,0.002678,0.000431,0.009520
49047000,0.0324,0.013523,0.002678,0.000431,0.010342
49048000,0.0324,0.013523,0.002678,0.000431,0.008697
49049000,0.0324,0.013523,0.002678,0.000431,0.010578
49050000,0.0324,0.013523,0.002678,0.000431,0.010813
49051000,0.0324,0.013523,0.002678,0.000431,0.009285
49052000,0.0324,0.013523,0.002678,0.000431,0.008932
49053000,0.0324,0.013523,0.002678,0.000431,0.008462
49054000,0.0324,0.013523,0.002678,0.000431,0.009520
49055000,0.0324,0.013523,0.002678,0.000431,0.008227
49056000,0.0324,0.013523,0.002678,0.000431,0.009050
49057000,0.0324,0.013523,0.002678,0.000431,0.009167
49058000,0.0324,0.013523,0.002678,0.000431,0.010225
49059000,0.0324,0.013523,0.002678,0.000431,0.006699
49060000,0.0324,0.013523,0.002678,0.000431,0.005759
49061000,0.0324,0.013523,0.002678,0.000431,0.006934
49062000,0.0324,0.013523,0.002678,0.000431,0.006111
49063000,0.0324,0.013523,0.002678,0.000431,0.006111
49064000,0.0324,0.013523,0.002678,0.000431,0.006464
49065000,0.0324,0.013523,0.002678,0.000431,0.006464
49066000,0.0324,0.013523,0.002678,0.000431,0.006347
49067000,0.0324,0.013523,0.002678,0.000431,0.005994
49068000,0.0324,0.013523,0.002678,0.000431,0.006699
49069000,0.0324,0.013523,0.002678,0.000431,0.006464
49070000,0.0324,0.013523,0.002678,0.000431,0.006111
49071000,0.0324,0.013523,0.002678,0.000431,0.006464
49072000,0.0324,0.013523,0.002678,0.000431,0.006699
49073000,0.0324,0.013523,0.002678,0.000431,0.006582
49074000,0.0324,0.013523,0.002678,0.000431,0.006817
49075000,0.0324,0.013523,0.002678,0.000431,0.005641
49076000,0.0324,0.013523,0.002678,0.000431,0.004701
49077000,0.0324,0.013523,0.002678,0.000431,0.005406
49078000,0.0324,0.013523,0.002678,0.000431,0.003996
49079000,0.0324,0.013523,0.002678,0.000431,0.005406
49080000,0.0324,0.013523,0.002678,0.000431,0.004819
49081000,0.0324,0.013523,0.002678,0.000431,0.004584
49082000,0.0324,0.013523,0.002678,0.000431,0.005289
49083000,0.0324,0.013523,0.002678,0.000431,0.007757
49084000,0.0324,0.013523,0.002678,0.000431,0.003878
49085000,0.0324,0.013523,0.002678,0.000431,0.002938
49086000,0.0324,0.013523,0.002678,0.000431,0.003408
49087000,0.0324,0.013523,0.002678,0.000431,0.003173
49088000,0.0324,0.013523,0.002678,0.000431,0.003173
49089000,0.0324,0.013523,0.002678,0.000431,0.003643
49090000,0.0324,0.013523,0.002678,0.000431,0.002938
49091000,0.0324,0.013523,0.002678,0.000431,0.003408
49092000,0.0324,0.013523,0.002678,0.000431,0.003173
49093000,0.0324,0.013523,0.002678,0.000431,0.003291
49094000,0.0324,0.013523,0.002678,0.000431,0.003173
49095000,0.0324,0.013523,0.002678,0.000431,0.003408
49096000,0.0324,0.013523,0.002678,0.000431,0.003291
49097000,0.0324,0.013523,0.002678,0.000431,0.003056
49098000,0.0324,0.013523,0.002678,0.000431,0.005054
49099000,0.0324,0.013523,0.002678,0.000431,0.002351
49100000,0.0324,0.013523,0.002678,0.000431,0.002586
49101000,0.0324,0.013523,0.002678,0.000431,0.003173
49102000,0.0324,0.013523,0.002678,0.000431,0.001645
49103000,0.0324,0.013523,0.002678,0.000431,0.001293
49104000,0.0324,0.013523,0.002678,0.000431,0.001763
49105000,0.0324,0.013523,0.002678,0.000431,0.001880
49106000,0.0324,0.013523,0.002678,0.000431,0.001175
49107000,0.0324,0.013523,0.002678,0.000431,0.001880
49108000,0.0324,0.013523,0.002678,0.000431,0.001293
49109000,0.0324,0.013523,0.002678,0.000431,0.001763
49110000,0.0324,0.013523,0.002678,0.000431,0.001645
49111000,0.0324,0.013523,0.002678,0.000431,0.001410
49112000,0.0324,0.013523,0.002678,0.000431,0.001880
49113000,0.0324,0.013523,0.002678,0.000431,0.001293
49114000,0.0324,0.013523,0.002678,0.000431,0.001763
49115000,0.0324,0.013523,0.002678,0.000431,0.001645
49116000,0.0324,0.013523,0.002678,0.000431,0.001410
49117000,0.0324,0.013523,0.002678,0.000431,0.001645
49118000,0.0324,0.013523,0.002678,0.000431,0.001528
49119000,0.0324,0.013523,0.002678,0.000431,0.001528
49120000,0.0324,0.013523,0.002678,0.000431,0.001645
49121000,0.0324,0.013523,0.002678,0.000431,0.001645
49122000,0.0324,0.013523,0.002678,0.000431,0.001410
49123000,0.0324,0.013523,0.002678,0.000431,0.003408
49124000,0.0324,0.013523,0.002678,0.000431,0.241050
49125000,0.0324,0.013523,0.002678,0.000431,0.598101
49126000,0.0324,0.013523,0.002678,0.000431,0.292175
49127000,0.0324,0.013523,0.002678,0.000431,0.131161
49128000,0.0324,0.013523,0.002678,0.000431,0.133865
49129000,0.0324,0.013523,0.002678,0.000431,0.581765
49130000,0.0324,0.013523,0.002678,0.000431,0.241755
49131000,0.0324,0.013523,0.002678,0.000431,0.227300
49132000,0.0324,0.013523,0.002678,0.000431,0.320969
49133000,0.0324,0.013523,0.002678,0.000431,0.151611
49134000,0.0324,0.013523,0.002678,0.000431,0.142797
49135000,0.0324,0.013523,0.002678,0.000431,0.108831
49136000,0.0324,0.013523,0.002678,0.000431,0.376913
49137000,0.0324,0.013523,0.002678,0.000431,0.201443
49138000,0.0324,0.013523,0.002678,0.000431,0.045131
49139000,0.0324,0.013523,0.002678,0.000431,0.034201
49140000,0.0324,0.013523,0.002678,0.000431,0.033731
49141000,0.0324,0.013523,0.002678,0.000431,0.026326
49142000,0.0324,0.013523,0.002678,0.000431,0.020685
49143000,0.0324,0.013523,0.002678,0.000431,0.017629
49144000,0.0324,0.013523,0.002678,0.000431,0.018452
49145000,0.0324,0.013523,0.002678,0.000431,0.017747
49146000,0.0324,0.013523,0.002678,0.000431,0.012340
49147000,0.0324,0.013523,0.002678,0.000431,0.014691
49148000,0.0324,0.013523,0.002678,0.000431,0.014809
49149000,0.0324,0.013523,0.002678,0.000431,0.009402
49150000,0.0324,0.013523,0.002678,0.000431,0.007287
49151000,0.0324,0.013523,0.002678,0.000431,0.008580
49152000,0.0324,0.013523,0.002678,0.000431,0.008697
49153000,0.0324,0.013523,0.002678,0.000431,0.006699
49154000,0.0324,0.013523,0.002678,0.000431,0.008697
49155000,0.0324,0.013523,0.002678,0.000431,0.008932
49156000,0.0324,0.013523,0.002678,0.000431,0.007757
49157000,0.0324,0.013523,0.002678,0.000431,0.010695
49158000,0.0324,0.013523,0.002678,0.000431,0.007287
49159000,0.0324,0.013523,0.002678,0.000431,0.005524
49160000,0.0324,0.013523,0.002678,0.000431,0.005759
49161000,0.0324,0.013523,0.002678,0.000431,0.005641
49162000,0.0324,0.013523,0.002678,0.000431,0.007404
49163000,0.0324,0.013523,0.002678,0.000431,0.006699
49164000,0.0324,0.013523,0.002678,0.000431,0.006817
49165000,0.0324,0.013523,0.002678,0.000431,0.006347
49166000,0.0324,0.013523,0.002678,0.000431,0.006347
49167000,0.0324,0.013523,0.002678,0.000431,0.006817
49168000,0.0324,0.013523,0.002678,0.000431,0.007287
49169000,0.0324,0.013523,0.002678,0.000431,0.005641
49170000,0.0324,0.013523,0.002678,0.000431,0.007169
49171000,0.0324,0.013523,0.002678,0.000431,0.006111
49172000,0.0324,0.013523,0.002678,0.000431,0.006229
49173000,0.0324,0.013523,0.002678,0.000431,0.007522
49174000,0.0324,0.013523,0.002678,0.000431,0.005876
49175000,0.0324,0.013523,0.002678,0.000431,0.006582
49176000,0.0324,0.013523,0.002678,0.000431,0.007522
49177000,0.0324,0.013523,0.002678,0.000431,0.005876
49178000,0.0324,0.013523,0.002678,0.000431,0.007404
49179000,0.0324,0.013523,0.002678,0.000431,0.005406
49180000,0.0324,0.013523,0.002678,0.000431,0.004936
49181000,0.0324,0.013523,0.002678,0.000431,0.004819
49182000,0.0324,0.013523,0.002678,0.000431,0.005406
49183000,0.0324,0.013523,0.002678,0.000431,0.005171
49184000,0.0324,0.013523,0.002678,0.000431,0.004819
49185000,0.0324,0.013523,0.002678,0.000431,0.004936
49186000,0.0324,0.013523,0.002678,0.000431,0.004349
49187000,0.0324,0.013523,0.002678,0.000431,0.004349
49188000,0.0324,0.013523,0.002678,0.000431,0.003761
49189000,0.0324,0.013523,0.002678,0.000431,0.004584
49190000,0.0324,0.013523,0.002678,0.000431,0.003291
49191000,0.0324,0.013523,0.002678,0.000431,0.002821
49192000,0.0324,0.013523,0.002678,0.000431,0.003408
49193000,0.0324,0.013523,0.002678,0.000431,0.003291
49194000,0.0324,0.013523,0.002678,0.000431,0.002821
49195000,0.0324,0.013523,0.002678,0.000431,0.003761
49196000,0.0324,0.013523,0.002678,0.000431,0.002351
49197000,0.0324,0.013523,0.002678,0.000431,0.003761
49198000,0.0324,0.013523,0.002678,0.000431,0.003173
49199000,0.0324,0.013523,0.002678,0.000431,0.002938
49200000,0.0324,0.013523,0.002678,0.000431,0.003408
49201000,0.0324,0.013523,0.002678,0.000431,0.002821
49202000,0.0324,0.013523,0.002678,0.000431,0.003643
49203000,0.0324,0.013523,0.002678,0.000431,0.003056
49204000,0.0324,0.013523,0.002678,0.000431,0.004819
49205000,0.0324,0.013523,0.002678,0.000431,0.002116
49206000,0.0324,0.013523,0.002678,0.000431,0.002351
49207000,0.0324,0.013523,0.002678,0.000431,0.002116
49208000,0.0324,0.013523,0.002678,0.000431,0.002821
49209000,0.0324,0.013523,0.002678,0.000431,0.001998
49210000,0.0324,0.013523,0.002678,0.000431,0.002468
49211000,0.0324,0.013523,0.002678,0.000431,0.001880
49212000,0.0324,0.013523,0.002678,0.000431,0.002586
49213000,0.0324,0.013523,0.002678,0.000431,0.002821
49214000,0.0324,0.013523,0.002678,0.000431,0.001645
49215000,0.0324,0.013523,0.002678,0.000431,0.002821
49216000,0.0324,0.013523,0.002678,0.000431,0.001880
49217000,0.0324,0.013523,0.002678,0.000431,0.002586
49218000,0.0324,0.013523,0.002678,0.000431,0.002468
49219000,0.0324,0.013523,0.002678,0.000431,0.001998
49220000,0.0324,0.013523,0.002678,0.000431,0.002468
49221000,0.0324,0.013523,0.002678,0.000431,0.002233
49222000,0.0324,0.013523,0.002678,0.000431,0.002233
49223000,0.0324,0.013523,0.002678,0.000431,0.002468
49224000,0.0324,0.013523,0.002678,0.000431,0.001998
49225000,0.0324,0.013523,0.002678,0.000431,0.002468
49226000,0.0324,0.013523,0.002678,0.000431,0.002468
49227000,0.0324,0.013523,0.002678,0.000431,0.001998
49228000,0.0324,0.013523,0.002678,0.000431,0.002821
49229000,0.0324,0.013523,0.002678,0.000431,0.001645
49230000,0.0324,0.013523,0.002678,0.000431,0.002821
49231000,0.0324,0.013523,0.002678,0.000431,0.002351
49232000,0.0324,0.013523,0.002678,0.000431,0.002116
49233000,0.0324,0.013523,0.002678,0.000431,0.002468
49234000,0.0324,0.013523,0.002678,0.000431,0.001998
49235000,0.0324,0.013523,0.002678,0.000431,0.002821
49236000,0.0324,0.013523,0.002678,0.000431,0.002116
49237000,0.0324,0.013523,0.002678,0.000431,0.002351
49238000,0.0324,0.013523,0.002678,0.000431,0.002116
49239000,0.0324,0.013523,0.002678,0.000431,0.002351
49240000,0.0324,0.013523,0.002678,0.000431,0.002233
49241000,0.0324,0.013523,0.002678,0.000431,0.002703
49242000,0.0324,0.013523,0.002678,0.000431,0.001998
49243000,0.0324,0.013523,0.002678,0.000431,0.002468
49244000,0.0324,0.013523,0.002678,0.000431,0.001880
49245000,0.0324,0.013523,0.002678,0.000431,0.002586
49246000,0.0324,0.013523,0.002678,0.000431,0.002821
49247000,0.0324,0.013523,0.002678,0.000431,0.001645
49248000,0.0324,0.013523,0.002678,0.000431,0.002821
49249000,0.0324,0.013523,0.002678,0.000431,0.001880
49250000,0.0324,0.013523,0.002678,0.000431,0.002586
49251000,0.0324,0.013523,0.002678,0.000431,0.002468
49252000,0.0324,0.013523,0.002678,0.000431,0.001998
49253000,0.0324,0.013523,0.002678,0.000431,0.002468
49254000,0.0324,0.013523,0.002678,0.000431,0.002233
49255000,0.0324,0.013523,0.002678,0.000431,0.002233
49256000,0.0324,0.013523,0.002678,0.000431,0.002468
49257000,0.0324,0.013523,0.002678,0.000431,0.001998
49258000,0.0324,0.013523,0.002678,0.000431,0.002468
49259000,0.0324,0.013523,0.002678,0.000431,0.002468
49260000,0.0324,0.013523,0.002678,0.000431,0.001998
49261000,0.0324,0.013523,0.002678,0.000431,0.002821
49262000,0.0324,0.013523,0.002678,0.000431,0.001645
49263000,0.0324,0.013523,0.002678,0.000431,0.002821
49264000,0.0324,0.013523,0.002678,0.000431,0.002351
49265000,0.0324,0.013523,0.002678,0.000431,0.002116
49266000,0.0324,0.013523,0.002678,0.000431,0.002468
49267000,0.0324,0.013523,0.002678,0.000431,0.001998
49268000,0.0324,0.013523,0.002678,0.000431,0.002468
49269000,0.0324,0.013523,0.002678,0.000431,0.002468
49270000,0.0324,0.013523,0.002678,0.000431,0.002351
49271000,0.0324,0.013523,0.002678,0.000431,0.002116
49272000,0.0324,0.013523,0.002678,0.000431,0.002351
49273000,0.0324,0.013523,0.002678,0.000431,0.002468
49274000,0.0324,0.013523,0.002678,0.000431,0.002468
49275000,0.0324,0.013523,0.002678,0.000431,0.001998
49276000,0.0324,0.013523,0.002678,0.000431,0.002468
49277000,0.0324,0.013523,0.002678,0.000431,0.001880
49278000,0.0324,0.013523,0.002678,0.000431,0.002586
49279000,0.0324,0.013523,0.002678,0.000431,0.002821
49280000,0.0324,0.013523,0.002678,0.000431,0.001645
49281000,0.0324,0.013523,0.002678,0.000431,0.002821
49282000,0.0324,0.013523,0.002678,0.000431,0.001880
49283000,0.0324,0.013523,0.002678,0.000431,0.002586
49284000,0.0324,0.013523,0.002678,0.000431,0.002468
49285000,0.0324,0.013523,0.002678,0.000431,0.001998
49286000,0.0324,0.013523,0.002678,0.000431,0.002468
49287000,0.0324,0.013523,0.002678,0.000431,0.002233
49288000,0.0324,0.013523,0.002678,0.000431,0.002233
49289000,0.0324,0.013523,0.002678,0.000431,0.002468
49290000,0.0324,0.013523,0.002678,0.000431,0.001998
49291000,0.0324,0.013523,0.002678,0.000431,0.002468
49292000,0.0324,0.013523,0.002678,0.000431,0.002468
49293000,0.0324,0.013523,0.002678,0.000431,0.001998
49294000,0.0324,0.013523,0.002678,0.000431,0.002821
49295000,0.0324,0.013523,0.002678,0.000431,0.001645
49296000,0.0324,0.013523,0.002678,0.000431,0.002821
49297000,0.0324,0.013523,0.002678,0.000431,0.002351
49298000,0.0324,0.013523,0.002678,0.000431,0.002116
49299000,0.0324,0.013523,0.002678,0.000431,0.002468
49300000,0.0324,0.013523,0.002678,0.000431,0.001998
49301000,0.0324,0.013523,0.002678,0.000431,0.002468
49302000,0.0324,0.013523,0.002678,0.000431,0.002468
49303000,0.0324,0.013523,0.002678,0.000431,0.002351
49304000,0.0324,0.013523,0.002678,0.000431,0.002116
49305000,0.0324,0.013523,0.002678,0.000431,0.002351
49306000,0.0324,0.013523,0.002678,0.000431,0.002468
49307000,0.0324,0.013523,0.002678,0.000431,0.002468
49308000,0.0324,0.013523,0.002678,0.000431,0.001998
49309000,0.0324,0.013523,0.002678,0.000431,0.002468
49310000,0.0324,0.013523,0.002678,0.000431,0.001880
49311000,0.0324,0.013523,0.002678,0.000431,0.002586
49312000,0.0324,0.013523,0.002678,0.000431,0.002821
49313000,0.0324,0.013523,0.002678,0.000431,0.001645
49314000,0.0324,0.013523,0.002678,0.000431,0.002821
49315000,0.0324,0.013523,0.002678,0.000431,0.001880
49316000,0.0324,0.013523,0.002678,0.000431,0.002586
49317000,0.0324,0.013523,0.002678,0.000431,0.002468
49318000,0.0324,0.013523,0.002678,0.000431,0.001998
49319000,0.0324,0.013523,0.002678,0.000431,0.002468
49320000,0.0324,0.013523,0.002678,0.000431,0.002233
49321000,0.0324,0.013523,0.002678,0.000431,0.002233
49322000,0.0324,0.013523,0.002678,0.000431,0.002468
49323000,0.0324,0.013523,0.002678,0.000431,0.001998
49324000,0.0324,0.013523,0.002678,0.000431,0.002468
49325000,0.0324,0.013523,0.002678,0.000431,0.002468
49326000,0.0324,0.013523,0.002678,0.000431,0.001998
49327000,0.0324,0.013523,0.002678,0.000431,0.002821
49328000,0.0324,0.013523,0.002678,0.000431,0.001645
49329000,0.0324,0.013523,0.002678,0.000431,0.002821
49330000,0.0324,0.013523,0.002678,0.000431,0.002351
49331000,0.0324,0.013523,0.002678,0.000431,0.002116
49332000,0.0324,0.013523,0.002678,0.000431,0.002468
49333000,0.0324,0.013523,0.002678,0.000431,0.001998
49334000,0.0324,0.013523,0.002678,0.000431,0.002468
49335000,0.0324,0.013523,0.002678,0.000431,0.002468
49336000,0.0324,0.013523,0.002678,0.000431,0.002351
49337000,0.0324,0.013523,0.002678,0.000431,0.002116
49338000,0.0324,0.013523,0.002678,0.000431,0.002351
49339000,0.0324,0.013523,0.002678,0.000431,0.002116
49340000,0.0324,0.013523,0.002678,0.000431,0.002821
49341000,0.0324,0.013523,0.002678,0.000431,0.001998
49342000,0.0324,0.013523,0.002678,0.000431,0.002468
49343000,0.0324,0.013523,0.002678,0.000431,0.001880
49344000,0.0324,0.013523,0.002678,0.000431,0.002586
49345000,0.0324,0.013523,0.002678,0.000431,0.002821
49346000,0.0324,0.013523,0.002678,0.000431,0.001645
49347000,0.0324,0.013523,0.002678,0.000431,0.002821
49348000,0.0324,0.013523,0.002678,0.000431,0.001880
49349000,0.0324,0.013523,0.002678,0.000431,0.002586
49350000,0.0324,0.013523,0.002678,0.000431,0.002116
49351000,0.0324,0.013523,0.002678,0.000431,0.002351
49352000,0.0324,0.013523,0.002678,0.000431,0.002468
49353000,0.0324,0.013523,0.002678,0.000431,0.002233
49354000,0.0324,0.013523,0.002678,0.000431,0.002233
49355000,0.0324,0.013523,0.002678,0.000431,0.002468
49356000,0.0324,0.013523,0.002678,0.000431,0.001998
49357000,0.0324,0.013523,0.002678,0.000431,0.002468
49358000,0.0324,0.013523,0.002678,0.000431,0.002351
49359000,0.0324,0.013523,0.002678,0.000431,0.002116
49360000,0.0324,0.013523,0.002678,0.000431,0.002821
49361000,0.0324,0.013523,0.002678,0.000431,0.001645
49362000,0.0324,0.013523,0.002678,0.000431,0.002821
49363000,0.0324,0.013523,0.002678,0.000431,0.002351
49364000,0.0324,0.013523,0.002678,0.000431,0.002116
49365000,0.0324,0.013523,0.002678,0.000431,0.002468
49366000,0.0324,0.013523,0.002678,0.000431,0.001998
49367000,0.0324,0.013523,0.002678,0.000431,0.002468
49368000,0.0324,0.013523,0.002678,0.000431,0.002468
49369000,0.0324,0.013523,0.002678,0.000431,0.002351
49370000,0.0324,0.013523,0.002678,0.000431,0.002116
49371000,0.0324,0.013523,0.002678,0.000431,0.002351
49372000,0.0324,0.013523,0.002678,0.000431,0.002468
49373000,0.0324,0.013523,0.002678,0.000431,0.002468
49374000,0.0324,0.013523,0.002678,0.000431,0.001998
49375000,0.0324,0.013523,0.002678,0.000431,0.002468
49376000,0.0324,0.013523,0.002678,0.000431,0.002821
49377000,0.0324,0.013523,0.002678,0.000431,0.002116
49378000,0.0324,0.013523,0.002678,0.000431,0.002821
49379000,0.0324,0.013523,0.002678,0.000431,0.002468
49380000,0.0324,0.013523,0.002678,0.000431,0.002468
49381000,0.0324,0.013523,0.002678,0.000431,0.002703
49382000,0.0324,0.013523,0.002678,0.000431,0.002233
49383000,0.0324,0.013523,0.002678,0.000431,0.002821
49384000,0.0324,0.013523,0.002678,0.000431,0.002468
49385000,0.0324,0.013523,0.002678,0.000431,0.002468
49386000,0.0324,0.013523,0.002678,0.000431,0.002468
49387000,0.0324,0.013523,0.002678,0.000431,0.002468
49388000,0.0324,0.013523,0.002678,0.000431,0.002821
49389000,0.0324,0.013523,0.002678,0.000431,0.002468
49390000,0.0324,0.013523,0.002678,0.000431,0.002468
49391000,0.0324,0.013523,0.002678,0.000431,0.002468
49392000,0.0324,0.013523,0.002678,0.000431,0.002468
49393000,0.0324,0.013523,0.002678,0.000431,0.002821
49394000,0.0324,0.013523,0.002678,0.000431,0.002468
49395000,0.0324,0.013523,0.002678,0.000431,0.002468
49396000,0.0324,0.013523,0.002678,0.000431,0.002468
49397000,0.0324,0.013523,0.002678,0.000431,0.002468
49398000,0.0324,0.013523,0.002678,0.000431,0.002821
49399000,0.0324,0.013523,0.002678,0.000431,0.002468
49400000,0.0324,0.013523,0.002678,0.000431,0.002468
49401000,0.0324,0.013523,0.002678,0.000431,0.002468
49402000,0.0324,0.013523,0.002678,0.000431,0.002468
49403000,0.0324,0.013523,0.002678,0.000431,0.002821
49404000,0.0324,0.013523,0.002678,0.000431,0.002468
49405000,0.0324,0.013523,0.002678,0.000431,0.002468
49406000,0.0324,0.013523,0.002678,0.000431,0.002468
49407000,0.0324,0.013523,0.002678,0.000431,0.002468
49408000,0.0324,0.013523,0.002678,0.000431,0.002821
49409000,0.0324,0.013523,0.002678,0.000431,0.002468
49410000,0.0324,0.013523,0.002678,0.000431,0.002468
49411000,0.0324,0.013523,0.002678,0.000431,0.002468
49412000,0.0324,0.013523,0.002678,0.000431,0.002468
49413000,0.0324,0.013523,0.002678,0.000431,0.002821
49414000,0.0324,0.013523,0.002678,0.000431,0.002116
49415000,0.0324,0.013523,0.002678,0.000431,0.002821
49416000,0.0324,0.013523,0.002678,0.000431,0.002468
49417000,0.0324,0.013523,0.002678,0.000431,0.002351
49418000,0.0324,0.013523,0.002678,0.000431,0.001880
49419000,0.0324,0.013523,0.002678,0.000431,0.001645
49420000,0.0324,0.013523,0.002678,0.000431,0.196037
49421000,0.0324,0.013523,0.002678,0.000431,0.567544
49422000,0.0324,0.013523,0.002678,0.000431,0.377030
49423000,0.0324,0.013523,0.002678,0.000431,0.131397
49424000,0.0324,0.013523,0.002678,0.000431,0.133159
49425000,0.0324,0.013523,0.002678,0.000431,0.561197
49426000,0.0324,0.013523,0.002678,0.000431,0.243048
49427000,0.0324,0.013523,0.002678,0.000431,0.226947
49428000,0.0324,0.013523,0.002678,0.000431,0.334250
49429000,0.0324,0.013523,0.002678,0.000431,0.138683
49430000,0.0324,0.013523,0.002678,0.000431,0.152787
49431000,0.0324,0.013523,0.002678,0.000431,0.107421
49432000,0.0324,0.013523,0.002678,0.000431,0.320147
49433000,0.0324,0.013523,0.002678,0.000431,0.270315
49434000,0.0324,0.013523,0.002678,0.000431,0.057941
49435000,0.0324,0.013523,0.002678,0.000431,0.051830
49436000,0.0324,0.013523,0.002678,0.000431,0.047246
49437000,0.0324,0.013523,0.002678,0.000431,0.042545
49438000,0.0324,0.013523,0.002678,0.000431,0.042193
49439000,0.0324,0.013523,0.002678,0.000431,0.035023
49440000,0.0324,0.013523,0.002678,0.000431,0.031145
49441000,0.0324,0.013523,0.002678,0.000431,0.027267
49442000,0.0324,0.013523,0.002678,0.000431,0.029617
49443000,0.0324,0.013523,0.002678,0.000431,0.025739
49444000,0.0324,0.013523,0.002678,0.000431,0.022918
49445000,0.0324,0.013523,0.002678,0.000431,0.019627
49446000,0.0324,0.013523,0.002678,0.000431,0.018805
49447000,0.0324,0.013523,0.002678,0.000431,0.015749
49448000,0.0324,0.013523,0.002678,0.000431,0.011870
49449000,0.0324,0.013523,0.002678,0.000431,0.013163
49450000,0.0324,0.013523,0.002678,0.000431,0.014809
49451000,0.0324,0.013523,0.002678,0.000431,0.011400
49452000,0.0324,0.013523,0.002678,0.000431,0.010107
49453000,0.0324,0.013523,0.002678,0.000431,0.008932
49454000,0.0324,0.013523,0.002678,0.000431,0.009520
49455000,0.0324,0.013523,0.002678,0.000431,0.007287
49456000,0.0324,0.013523,0.002678,0.000431,0.007522
49457000,0.0324,0.013523,0.002678,0.000431,0.007639
49458000,0.0324,0.013523,0.002678,0.000431,0.007639
49459000,0.0324,0.013523,0.002678,0.000431,0.007404
49460000,0.0324,0.013523,0.002678,0.000431,0.007404
49461000,0.0324,0.013523,0.002678,0.000431,0.008932
49462000,0.0324,0.013523,0.002678,0.000431,0.007052
49463000,0.0324,0.013523,0.002678,0.000431,0.006817
49464000,0.0324,0.013523,0.002678,0.000431,0.006464
49465000,0.0324,0.013523,0.002678,0.000431,0.006464
49466000,0.0324,0.013523,0.002678,0.000431,0.008697
49467000,0.0324,0.013523,0.002678,0.000431,0.005759
49468000,0.0324,0.013523,0.002678,0.000431,0.005524
49469000,0.0324,0.013523,0.002678,0.000431,0.006229
49470000,0.0324,0.013523,0.002678,0.000431,0.005876
49471000,0.0324,0.013523,0.002678,0.000431,0.005641
49472000,0.0324,0.013523,0.002678,0.000431,0.006699
49473000,0.0324,0.013523,0.002678,0.000431,0.005406
49474000,0.0324,0.013523,0.002678,0.000431,0.004819
49475000,0.0324,0.013523,0.002678,0.000431,0.004936
49476000,0.0324,0.013523,0.002678,0.000431,0.005994
49477000,0.0324,0.013523,0.002678,0.000431,0.003408
49478000,0.0324,0.013523,0.002678,0.000431,0.002938
49479000,0.0324,0.013523,0.002678,0.000431,0.003643
49480000,0.0324,0.013523,0.002678,0.000431,0.003408
49481000,0.0324,0.013523,0.002678,0.000431,0.003408
49482000,0.0324,0.013523,0.002678,0.000431,0.003056
49483000,0.0324,0.013523,0.002678,0.000431,0.003643
49484000,0.0324,0.013523,0.002678,0.000431,0.003408
49485000,0.0324,0.013523,0.002678,0.000431,0.003291
49486000,0.0324,0.013523,0.002678,0.000431,0.003291
49487000,0.0324,0.013523,0.002678,0.000431,0.003408
49488000,0.0324,0.013523,0.002678,0.000431,0.003526
49489000,0.0324,0.013523,0.002678,0.000431,0.003056
49490000,0.0324,0.013523,0.002678,0.000431,0.003526
49491000,0.0324,0.013523,0.002678,0.000431,0.003291
49492000,0.0324,0.013523,0.002678,0.000431,0.003526
49493000,0.0324,0.013523,0.002678,0.000431,0.003291
49494000,0.0324,0.013523,0.002678,0.000431,0.003291
49495000,0.0324,0.013523,0.002678,0.000431,0.003526
49496000,0.0324,0.013523,0.002678,0.000431,0.003173
49497000,0.0324,0.013523,0.002678,0.000431,0.003408
49498000,0.0324,0.013523,0.002678,0.000431,0.003643
49499000,0.0324,0.013523,0.002678,0.000431,0.003173
49500000,0.0324,0.013523,0.002678,0.000431,0.003408
49501000,0.0324,0.013523,0.002678,0.000431,0.003173
49502000,0.0324,0.013523,0.002678,0.000431,0.003408
49503000,0.0324,0.013523,0.002678,0.000431,0.003408
49504000,0.0324,0.013523,0.002678,0.000431,0.003408
49505000,0.0324,0.013523,0.002678,0.000431,0.003408
49506000,0.0324,0.013523,0.002678,0.000431,0.003291
49507000,0.0324,0.013523,0.002678,0.000431,0.003408
49508000,0.0324,0.013523,0.002678,0.000431,0.003408
49509000,0.0324,0.013523,0.002678,0.000431,0.003408
49510000,0.0324,0.013523,0.002678,0.000431,0.003173
49511000,0.0324,0.013523,0.002678,0.000431,0.004584
49512000,0.0324,0.013523,0.002678,0.000431,0.002586
49513000,0.0324,0.013523,0.002678,0.000431,0.002586
49514000,0.0324,0.013523,0.002678,0.000431,0.002116
49515000,0.0324,0.013523,0.002678,0.000431,0.002821
49516000,0.0324,0.013523,0.002678,0.000431,0.002468
49517000,0.0324,0.013523,0.002678,0.000431,0.002468
49518000,0.0324,0.013523,0.002678,0.000431,0.002351
49519000,0.0324,0.013523,0.002678,0.000431,0.002586
49520000,0.0324,0.013523,0.002678,0.000431,0.002586
49521000,0.0324,0.013523,0.002678,0.000431,0.002233
49522000,0.0324,0.013523,0.002678,0.000431,0.002703
49523000,0.0324,0.013523,0.002678,0.000431,0.002468
49524000,0.0324,0.013523,0.002678,0.000431,0.002468
49525000,0.0324,0.013523,0.002678,0.000431,0.002351
49526000,0.0324,0.013523,0.002678,0.000431,0.002586
49527000,0.0324,0.013523,0.002678,0.000431,0.002586
49528000,0.0324,0.013523,0.002678,0.000431,0.002351
49529000,0.0324,0.013523,0.002678,0.000431,0.002468
49530000,0.0324,0.013523,0.002678,0.000431,0.002586
49531000,0.0324,0.013523,0.002678,0.000431,0.002468
49532000,0.0324,0.013523,0.002678,0.000431,0.002468
49533000,0.0324,0.013523,0.002678,0.000431,0.002468
49534000,0.0324,0.013523,0.002678,0.000431,0.002351
49535000,0.0324,0.013523,0.002678,0.000431,0.002586
49536000,0.0324,0.013523,0.002678,0.000431,0.002586
49537000,0.0324,0.013523,0.002678,0.000431,0.002468
49538000,0.0324,0.013523,0.002678,0.000431,0.002468
49539000,0.0324,0.013523,0.002678,0.000431,0.002351
49540000,0.0324,0.013523,0.002678,0.000431,0.002586
49541000,0.0324,0.013523,0.002678,0.000431,0.002821
49542000,0.0324,0.013523,0.002678,0.000431,0.001998
49543000,0.0324,0.013523,0.002678,0.000431,0.002703
49544000,0.0324,0.013523,0.002678,0.000431,0.002586
49545000,0.0324,0.013523,0.002678,0.000431,0.002586
49546000,0.0324,0.013523,0.002678,0.000431,0.002233
49547000,0.0324,0.013523,0.002678,0.000431,0.002468
49548000,0.0324,0.013523,0.002678,0.000431,0.002703
49549000,0.0324,0.013523,0.002678,0.000431,0.002468
49550000,0.0324,0.013523,0.002678,0.000431,0.002351
49551000,0.0324,0.013523,0.002678,0.000431,0.002586
49552000,0.0324,0.013523,0.002678,0.000431,0.002586
49553000,0.0324,0.013523,0.002678,0.000431,0.002233
49554000,0.0324,0.013523,0.002678,0.000431,0.002586
49555000,0.0324,0.013523,0.002678,0.000431,0.002586
49556000,0.0324,0.013523,0.002678,0.000431,0.002468
49557000,0.0324,0.013523,0.002678,0.000431,0.002233
49558000,0.0324,0.013523,0.002678,0.000431,0.002703
49559000,0.0324,0.013523,0.002678,0.000431,0.002586
49560000,0.0324,0.013523,0.002678,0.000431,0.002351
49561000,0.0324,0.013523,0.002678,0.000431,0.002586
49562000,0.0324,0.013523,0.002678,0.000431,0.002351
49563000,0.0324,0.013523,0.002678,0.000431,0.002586
49564000,0.0324,0.013523,0.002678,0.000431,0.002468
49565000,0.0324,0.013523,0.002678,0.000431,0.002468
49566000,0.0324,0.013523,0.002678,0.000431,0.002703
49567000,0.0324,0.013523,0.002678,0.000431,0.002233
49568000,0.0324,0.013523,0.002678,0.000431,0.002586
49569000,0.0324,0.013523,0.002678,0.000431,0.002468
49570000,0.0324,0.013523,0.002678,0.000431,0.002468
49571000,0.0324,0.013523,0.002678,0.000431,0.002351
49572000,0.0324,0.013523,0.002678,0.000431,0.002586
49573000,0.0324,0.013523,0.002678,0.000431,0.002821
49574000,0.0324,0.013523,0.002678,0.000431,0.002116
49575000,0.0324,0.013523,0.002678,0.000431,0.002586
49576000,0.0324,0.013523,0.002678,0.000431,0.002468
49577000,0.0324,0.013523,0.002678,0.000431,0.002703
49578000,0.0324,0.013523,0.002678,0.000431,0.002233
49579000,0.0324,0.013523,0.002678,0.000431,0.002468
49580000,0.0324,0.013523,0.002678,0.000431,0.002703
49581000,0.0324,0.013523,0.002678,0.000431,0.002351
49582000,0.0324,0.013523,0.002678,0.000431,0.002351
49583000,0.0324,0.013523,0.002678,0.000431,0.002586
49584000,0.0324,0.013523,0.002678,0.000431,0.002703
49585000,0.0324,0.013523,0.002678,0.000431,0.002233
49586000,0.0324,0.013523,0.002678,0.000431,0.002468
49587000,0.0324,0.013523,0.002678,0.000431,0.002586
49588000,0.0324,0.013523,0.002678,0.000431,0.002586
49589000,0.0324,0.013523,0.002678,0.000431,0.002351
49590000,0.0324,0.013523,0.002678,0.000431,0.002586
49591000,0.0324,0.013523,0.002678,0.000431,0.002586
49592000,0.0324,0.013523,0.002678,0.000431,0.002351
49593000,0.0324,0.013523,0.002678,0.000431,0.002351
49594000,0.0324,0.013523,0.002678,0.000431,0.002703
49595000,0.0324,0.013523,0.002678,0.000431,0.002468
49596000,0.0324,0.013523,0.002678,0.000431,0.002586
49597000,0.0324,0.013523,0.002678,0.000431,0.002351
49598000,0.0324,0.013523,0.002678,0.000431,0.002586
49599000,0.0324,0.013523,0.002678,0.000431,0.002468
49600000,0.0324,0.013523,0.002678,0.000431,0.002351
49601000,0.0324,0.013523,0.002678,0.000431,0.002586
49602000,0.0324,0.013523,0.002678,0.000431,0.002468
49603000,0.0324,0.013523,0.002678,0.000431,0.002468
49604000,0.0324,0.013523,0.002678,0.000431,0.002468
49605000,0.0324,0.013523,0.002678,0.000431,0.002586
49606000,0.0324,0.013523,0.002678,0.000431,0.002351
49607000,0.0324,0.013523,0.002678,0.000431,0.002586
49608000,0.0324,0.013523,0.002678,0.000431,0.002468
49609000,0.0324,0.013523,0.002678,0.000431,0.002703
49610000,0.0324,0.013523,0.002678,0.000431,0.002116
49611000,0.0324,0.013523,0.002678,0.000431,0.002586
49612000,0.0324,0.013523,0.002678,0.000431,0.002703
49613000,0.0324,0.013523,0.002678,0.000431,0.002233
49614000,0.0324,0.013523,0.002678,0.000431,0.002586
49615000,0.0324,0.013523,0.002678,0.000431,0.002351
49616000,0.0324,0.013523,0.002678,0.000431,0.002821
49617000,0.0324,0.013523,0.002678,0.000431,0.002233
49618000,0.0324,0.013523,0.002678,0.000431,0.002468
49619000,0.0324,0.013523,0.002678,0.000431,0.002468
49620000,0.0324,0.013523,0.002678,0.000431,0.002233
49621000,0.0324,0.013523,0.002678,0.000431,0.002821
49622000,0.0324,0.013523,0.002678,0.000431,0.002468
49623000,0.0324,0.013523,0.002678,0.000431,0.002233
49624000,0.0324,0.013523,0.002678,0.000431,0.002703
49625000,0.0324,0.013523,0.002678,0.000431,0.002468
49626000,0.0324,0.013523,0.002678,0.000431,0.002468
49627000,0.0324,0.013523,0.002678,0.000431,0.002233
49628000,0.0324,0.013523,0.002678,0.000431,0.002821
49629000,0.0324,0.013523,0.002678,0.000431,0.002351
49630000,0.0324,0.013523,0.002678,0.000431,0.002468
49631000,0.0324,0.013523,0.002678,0.000431,0.002586
49632000,0.0324,0.013523,0.002678,0.000431,0.002468
49633000,0.0324,0.013523,0.002678,0.000431,0.002468
49634000,0.0324,0.013523,0.002678,0.000431,0.002351
49635000,0.0324,0.013523,0.002678,0.000431,0.002468
49636000,0.0324,0.013523,0.002678,0.000431,0.002586
49637000,0.0324,0.013523,0.002678,0.000431,0.002586
49638000,0.0324,0.013523,0.002678,0.000431,0.002351
49639000,0.0324,0.013523,0.002678,0.000431,0.002586
49640000,0.0324,0.013523,0.002678,0.000431,0.002351
49641000,0.0324,0.013523,0.002678,0.000431,0.002586
49642000,0.0324,0.013523,0.002678,0.000431,0.002468
49643000,0.0324,0.013523,0.002678,0.000431,0.002703
49644000,0.0324,0.013523,0.002678,0.000431,0.002351
49645000,0.0324,0.013523,0.002678,0.000431,0.002351
49646000,0.0324,0.013523,0.002678,0.000431,0.002703
49647000,0.0324,0.013523,0.002678,0.000431,0.002586
49648000,0.0324,0.013523,0.002678,0.000431,0.002233
49649000,0.0324,0.013523,0.002678,0.000431,0.002468
49650000,0.0324,0.013523,0.002678,0.000431,0.002703
49651000,0.0324,0.013523,0.002678,0.000431,0.002233
49652000,0.0324,0.013523,0.002678,0.000431,0.002468
49653000,0.0324,0.013523,0.002678,0.000431,0.002821
49654000,0.0324,0.013523,0.002678,0.000431,0.002351
49655000,0.0324,0.013523,0.002678,0.000431,0.002351
49656000,0.0324,0.013523,0.002678,0.000431,0.002351
49657000,0.0324,0.013523,0.002678,0.000431,0.002821
49658000,0.0324,0.013523,0.002678,0.000431,0.002351
49659000,0.0324,0.013523,0.002678,0.000431,0.002351
49660000,0.0324,0.013523,0.002678,0.000431,0.002821
49661000,0.0324,0.013523,0.002678,0.000431,0.002351
49662000,0.0324,0.013523,0.002678,0.000431,0.002586
49663000,0.0324,0.013523,0.002678,0.000431,0.002233
49664000,0.0324,0.013523,0.002678,0.000431,0.002703
49665000,0.0324,0.013523,0.002678,0.000431,0.002468
49666000,0.0324,0.013523,0.002678,0.000431,0.002468
49667000,0.0324,0.013523,0.002678,0.000431,0.002468
49668000,0.0324,0.013523,0.002678,0.000431,0.002468
49669000,0.0324,0.013523,0.002678,0.000431,0.002586
49670000,0.0324,0.013523,0.002678,0.000431,0.002351
49671000,0.0324,0.013523,0.002678,0.000431,0.004584
49672000,0.0324,0.013523,0.002678,0.000431,0.000940
49673000,0.0324,0.013523,0.002678,0.000431,0.000823
49674000,0.0324,0.013523,0.002678,0.000431,0.000823
49675000,0.0324,0.013523,0.002678,0.000431,0.000823
49676000,0.0324,0.013523,0.002678,0.000431,0.000823
49677000,0.0324,0.013523,0.002678,0.000431,0.000823
49678000,0.0324,0.013523,0.002678,0.000431,0.000823
49679000,0.0324,0.013523,0.002678,0.000431,0.000940
49680000,0.0324,0.013523,0.002678,0.000431,0.000823
49681000,0.0324,0.013523,0.002678,0.000431,0.000823
49682000,0.0324,0.013523,0.002678,0.000431,0.000823
49683000,0.0324,0.013523,0.002678,0.000431,0.000705
49684000,0.0324,0.013523,0.002678,0.000431,0.000940
49685000,0.0324,0.013523,0.002678,0.000431,0.000940
49686000,0.0324,0.013523,0.002678,0.000431,0.000705
49687000,0.0324,0.013523,0.002678,0.000431,0.000940
49688000,0.0324,0.013523,0.002678,0.000431,0.000705
49689000,0.0324,0.013523,0.002678,0.000431,0.000940
49690000,0.0324,0.013523,0.002678,0.000431,0.000940
49691000,0.0324,0.013523,0.002678,0.000431,0.000705
49692000,0.0324,0.013523,0.002678,0.000431,0.000940
49693000,0.0324,0.013523,0.002678,0.000431,0.000705
49694000,0.0324,0.013523,0.002678,0.000431,0.000940
49695000,0.0324,0.013523,0.002678,0.000431,0.000823
49696000,0.0324,0.013523,0.002678,0.000431,0.000823
49697000,0.0324,0.013523,0.002678,0.000431,0.000940
49698000,0.0324,0.013523,0.002678,0.000431,0.000705
49699000,0.0324,0.013523,0.002678,0.000431,0.000940
49700000,0.0324,0.013523,0.002678,0.000431,0.000823
49701000,0.0324,0.013523,0.002678,0.000431,0.000823
49702000,0.0324,0.013523,0.002678,0.000431,0.000823
49703000,0.0324,0.013523,0.002678,0.000431,0.000823
49704000,0.0324,0.013523,0.002678,0.000431,0.000940
49705000,0.0324,0.013523,0.002678,0.000431,0.000705
49706000,0.0324,0.013523,0.002678,0.000431,0.000940
49707000,0.0324,0.013523,0.002678,0.000431,0.000823
49708000,0.0324,0.013523,0.002678,0.000431,0.000823
49709000,0.0324,0.013523,0.002678,0.000431,0.000823
49710000,0.0324,0.013523,0.002678,0.000431,0.000823
49711000,0.0324,0.013523,0.002678,0.000431,0.000823
49712000,0.0324,0.013523,0.002678,0.000431,0.000823
49713000,0.0324,0.013523,0.002678,0.000431,0.000940
49714000,0.0324,0.013523,0.002678,0.000431,0.000705
49715000,0.0324,0.013523,0.002678,0.000431,0.000940
49716000,0.0324,0.013523,0.002678,0.000431,0.000705
49717000,0.0324,0.013523,0.002678,0.000431,0.000940
49718000,0.0324,0.013523,0.002678,0.000431,0.000940
49719000,0.0324,0.013523,0.002678,0.000431,0.000705
49720000,0.0324,0.013523,0.002678,0.000431,0.000940
49721000,0.0324,0.013523,0.002678,0.000431,0.000705
49722000,0.0324,0.013523,0.002678,0.000431,0.000940
49723000,0.0324,0.013523,0.002678,0.000431,0.000823
49724000,0.0324,0.013523,0.002678,0.000431,0.000823
49725000,0.0324,0.013523,0.002678,0.000431,0.000940
49726000,0.0324,0.013523,0.002678,0.000431,0.000705
49727000,0.0324,0.013523,0.002678,0.000431,0.000940
49728000,0.0324,0.013523,0.002678,0.000431,0.000823
49729000,0.0324,0.013523,0.002678,0.000431,0.000823
49730000,0.0324,0.013523,0.002678,0.000431,0.000823
49731000,0.0324,0.013523,0.002678,0.000431,0.000823
49732000,0.0324,0.013523,0.002678,0.000431,0.000940
49733000,0.0324,0.013523,0.002678,0.000431,0.000705
49734000,0.0324,0.013523,0.002678,0.000431,0.000940
49735000,0.0324,0.013523,0.002678,0.000431,0.000823
49736000,0.0324,0.013523,0.002678,0.000431,0.000823
49737000,0.0324,0.013523,0.002678,0.000431,0.000823
49738000,0.0324,0.013523,0.002678,0.000431,0.000823
49739000,0.0324,0.013523,0.002678,0.000431,0.000823
49740000,0.0324,0.013523,0.002678,0.000431,0.000823
49741000,0.0324,0.013523,0.002678,0.000431,0.000823
49742000,0.0324,0.013523,0.002678,0.000431,0.000940
49743000,0.0324,0.013523,0.002678,0.000431,0.000823
49744000,0.0324,0.013523,0.002678,0.000431,0.000823
49745000,0.0324,0.013523,0.002678,0.000431,0.000823
49746000,0.0324,0.013523,0.002678,0.000431,0.000705
49747000,0.0324,0.013523,0.002678,0.000431,0.000940
49748000,0.0324,0.013523,0.002678,0.000431,0.000940
49749000,0.0324,0.013523,0.002678,0.000431,0.000705
49750000,0.0324,0.013523,0.002678,0.000431,0.000940
49751000,0.0324,0.013523,0.002678,0.000431,0.000705
49752000,0.0324,0.013523,0.002678,0.000431,0.000940
49753000,0.0324,0.013523,0.002678,0.000431,0.000823
49754000,0.0324,0.013523,0.002678,0.000431,0.000823
49755000,0.0324,0.013523,0.002678,0.000431,0.000940
49756000,0.0324,0.013523,0.002678,0.000431,0.000705
49757000,0.0324,0.013523,0.002678,0.000431,0.000940
49758000,0.0324,0.013523,0.002678,0.000431,0.000823
49759000,0.0324,0.013523,0.002678,0.000431,0.000823
49760000,0.0324,0.013523,0.002678,0.000431,0.000823
49761000,0.0324,0.013523,0.002678,0.000431,0.000823
49762000,0.0324,0.013523,0.002678,0.000431,0.000940
49763000,0.0324,0.013523,0.002678,0.000431,0.000705
49764000,0.0324,0.013523,0.002678,0.000431,0.000940
49765000,0.0324,0.013523,0.002678,0.000431,0.000823
49766000,0.0324,0.013523,0.002678,0.000431,0.000823
49767000,0.0324,0.013523,0.002678,0.000431,0.000823
49768000,0.0324,0.013523,0.002678,0.000431,0.000823
49769000,0.0324,0.013523,0.002678,0.000431,0.000940
49770000,0.0324,0.013523,0.002678,0.000431,0.000705
49771000,0.0324,0.013523,0.002678,0.000431,0.000940
49772000,0.0324,0.013523,0.002678,0.000431,0.000823
49773000,0.0324,0.013523,0.002678,0.000431,0.000823
49774000,0.0324,0.013523,0.002678,0.000431,0.000705
49775000,0.0324,0.013523,0.002678,0.000431,0.000940
49776000,0.0324,0.013523,0.002678,0.000431,0.000940
49777000,0.0324,0.013523,0.002678,0.000431,0.000705
49778000,0.0324,0.013523,0.002678,0.000431,0.000940
49779000,0.0324,0.013523,0.002678,0.000431,0.000705
49780000,0.0324,0.013523,0.002678,0.000431,0.000940
49781000,0.0324,0.013523,0.002678,0.000431,0.000940
49782000,0.0324,0.013523,0.002678,0.000431,0.000705
49783000,0.0324,0.013523,0.002678,0.000431,0.000940
49784000,0.0324,0.013523,0.002678,0.000431,0.000705
49785000,0.0324,0.013523,0.002678,0.000431,0.000940
49786000,0.0324,0.013523,0.002678,0.000431,0.000823
49787000,0.0324,0.013523,0.002678,0.000431,0.000823
49788000,0.0324,0.013523,0.002678,0.000431,0.000823
49789000,0.0324,0.013523,0.002678,0.000431,0.000823
49790000,0.0324,0.013523,0.002678,0.000431,0.000940
49791000,0.0324,0.013523,0.002678,0.000431,0.000705
49792000,0.0324,0.013523,0.002678,0.000431,0.000940
49793000,0.0324,0.013523,0.002678,0.000431,0.000823
49794000,0.0324,0.013523,0.002678,0.000431,0.000823
49795000,0.0324,0.013523,0.002678,0.000431,0.000823
49796000,0.0324,0.013523,0.002678,0.000431,0.000823
49797000,0.0324,0.013523,0.002678,0.000431,0.000823
49798000,0.0324,0.013523,0.002678,0.000431,0.000823
49799000,0.0324,0.013523,0.002678,0.000431,0.000823
49800000,0.0324,0.013523,0.002678,0.000431,0.000940
49801000,0.0324,0.013523,0.002678,0.000431,0.000823
49802000,0.0324,0.013523,0.002678,0.000431,0.000823
49803000,0.0324,0.013523,0.002678,0.000431,0.000823
49804000,0.0324,0.013523,0.002678,0.000431,0.000705
49805000,0.0324,0.013523,0.002678,0.000431,0.000940
49806000,0.0324,0.013523,0.002678,0.000431,0.000940
49807000,0.0324,0.013523,0.002678,0.000431,0.000705
49808000,0.0324,0.013523,0.002678,0.000431,0.000940
49809000,0.0324,0.013523,0.002678,0.000431,0.000705
49810000,0.0324,0.013523,0.002678,0.000431,0.000940
49811000,0.0324,0.013523,0.002678,0.000431,0.000940
49812000,0.0324,0.013523,0.002678,0.000431,0.000705
49813000,0.0324,0.013523,0.002678,0.000431,0.000940
49814000,0.0324,0.013523,0.002678,0.000431,0.000705
49815000,0.0324,0.013523,0.002678,0.000431,0.000940
49816000,0.0324,0.013523,0.002678,0.000431,0.000823
49817000,0.0324,0.013523,0.002678,0.000431,0.000823
49818000,0.0324,0.013523,0.002678,0.000431,0.000940
49819000,0.0324,0.013523,0.002678,0.000431,0.000705
49820000,0.0324,0.013523,0.002678,0.000431,0.000940
49821000,0.0324,0.013523,0.002678,0.000431,0.000823
49822000,0.0324,0.013523,0.002678,0.000431,0.000823
49823000,0.0324,0.013523,0.002678,0.000431,0.000823
49824000,0.0324,0.013523,0.002678,0.000431,0.000823
49825000,0.0324,0.013523,0.002678,0.000431,0.000940
49826000,0.0324,0.013523,0.002678,0.000431,0.000705
49827000,0.0324,0.013523,0.002678,0.000431,0.000940
49828000,0.0324,0.013523,0.002678,0.000431,0.000823
49829000,0.0324,0.013523,0.002678,0.000431,0.000823
49830000,0.0324,0.013523,0.002678,0.000431,0.000823
49831000,0.0324,0.013523,0.002678,0.000431,0.000823
49832000,0.0324,0.013523,0.002678,0.000431,0.000823
49833000,0.0324,0.013523,0.002678,0.000431,0.000823
49834000,0.0324,0.013523,0.002678,0.000431,0.000940
49835000,0.0324,0.013523,0.002678,0.000431,0.000705
49836000,0.0324,0.013523,0.002678,0.000431,0.000940
49837000,0.0324,0.013523,0.002678,0.000431,0.000705
49838000,0.0324,0.013523,0.002678,0.000431,0.000940
49839000,0.0324,0.013523,0.002678,0.000431,0.000940
49840000,0.0324,0.013523,0.002678,0.000431,0.000705
49841000,0.0324,0.013523,0.002678,0.000431,0.000940
49842000,0.0324,0.013523,0.002678,0.000431,0.000705
49843000,0.0324,0.013523,0.002678,0.000431,0.000940
49844000,0.0324,0.013523,0.002678,0.000431,0.000823
49845000,0.0324,0.013523,0.002678,0.000431,0.000823
49846000,0.0324,0.013523,0.002678,0.000431,0.000940
49847000,0.0324,0.013523,0.002678,0.000431,0.000705
49848000,0.0324,0.013523,0.002678,0.000431,0.000940
49849000,0.0324,0.013523,0.002678,0.000431,0.000823
49850000,0.0324,0.013523,0.002678,0.000431,0.000823
49851000,0.0324,0.013523,0.002678,0.000431,0.000823
49852000,0.0324,0.013523,0.002678,0.000431,0.000823
49853000,0.0324,0.013523,0.002678,0.000431,0.000823
49854000,0.0324,0.013523,0.002678,0.000431,0.000823
49855000,0.0324,0.013523,0.002678,0.000431,0.000940
49856000,0.0324,0.013523,0.002678,0.000431,0.000705
49857000,0.0324,0.013523,0.002678,0.000431,0.000823
49858000,0.0324,0.013523,0.002678,0.000431,0.000940
49859000,0.0324,0.013523,0.002678,0.000431,0.000823
49860000,0.0324,0.013523,0.002678,0.000431,0.000823
49861000,0.0324,0.013523,0.002678,0.000431,0.000823
49862000,0.0324,0.013523,0.002678,0.000431,0.000823
49863000,0.0324,0.013523,0.002678,0.000431,0.000823
49864000,0.0324,0.013523,0.002678,0.000431,0.000940
49865000,0.0324,0.013523,0.002678,0.000431,0.013986
49866000,0.0324,0.013523,0.002678,0.000431,0.486567
49867000,0.0324,0.013523,0.002678,0.000431,0.591754
49868000,0.0324,0.013523,0.002678,0.000431,0.134452
49869000,0.0324,0.013523,0.002678,0.000431,0.131632
49870000,0.0324,0.013523,0.002678,0.000431,0.377501
49871000,0.0324,0.013523,0.002678,0.000431,0.406765
49872000,0.0324,0.013523,0.002678,0.000431,0.223304
49873000,0.0324,0.013523,0.002678,0.000431,0.366335
49874000,0.0324,0.013523,0.002678,0.000431,0.183226
49875000,0.0324,0.013523,0.002678,0.000431,0.145030
49876000,0.0324,0.013523,0.002678,0.000431,0.114002
49877000,0.0324,0.013523,0.002678,0.000431,0.321440
49878000,0.0324,0.013523,0.002678,0.000431,0.258797
49879000,0.0324,0.013523,0.002678,0.000431,0.035376
49880000,0.0324,0.013523,0.002678,0.000431,0.033260
49881000,0.0324,0.013523,0.002678,0.000431,0.022095
49882000,0.0324,0.013523,0.002678,0.000431,0.016689
49883000,0.0324,0.013523,0.002678,0.000431,0.015631
49884000,0.0324,0.013523,0.002678,0.000431,0.016571
49885000,0.0324,0.013523,0.002678,0.000431,0.014809
49886000,0.0324,0.013523,0.002678,0.000431,0.013281
49887000,0.0324,0.013523,0.002678,0.000431,0.011635
49888000,0.0324,0.013523,0.002678,0.000431,0.011988
49889000,0.0324,0.013523,0.002678,0.000431,0.012340
49890000,0.0324,0.013523,0.002678,0.000431,0.011753
49891000,0.0324,0.013523,0.002678,0.000431,0.011165
49892000,0.0324,0.013523,0.002678,0.000431,0.008580
49893000,0.0324,0.013523,0.002678,0.000431,0.005994
49894000,0.0324,0.013523,0.002678,0.000431,0.007169
49895000,0.0324,0.013523,0.002678,0.000431,0.005994
49896000,0.0324,0.013523,0.002678,0.000431,0.007992
49897000,0.0324,0.013523,0.002678,0.000431,0.006934
49898000,0.0324,0.013523,0.002678,0.000431,0.003996
49899000,0.0324,0.013523,0.002678,0.000431,0.004113
49900000,0.0324,0.013523,0.002678,0.000431,0.005054
49901000,0.0324,0.013523,0.002678,0.000431,0.003408
49902000,0.0324,0.013523,0.002678,0.000431,0.003643
49903000,0.0324,0.013523,0.002678,0.000431,0.002938
49904000,0.0324,0.013523,0.002678,0.000431,0.003408
49905000,0.0324,0.013523,0.002678,0.000431,0.003056
49906000,0.0324,0.013523,0.002678,0.000431,0.003291
49907000,0.0324,0.013523,0.002678,0.000431,0.003408
49908000,0.0324,0.013523,0.002678,0.000431,0.002938
49909000,0.0324,0.013523,0.002678,0.000431,0.003526
49910000,0.0324,0.013523,0.002678,0.000431,0.003173
49911000,0.0324,0.013523,0.002678,0.000431,0.003408
49912000,0.0324,0.013523,0.002678,0.000431,0.003173
49913000,0.0324,0.013523,0.002678,0.000431,0.003173
49914000,0.0324,0.013523,0.002678,0.000431,0.003056
49915000,0.0324,0.013523,0.002678,0.000431,0.003526
49916000,0.0324,0.013523,0.002678,0.000431,0.004231
49917000,0.0324,0.013523,0.002678,0.000431,0.001528
49918000,0.0324,0.013523,0.002678,0.000431,0.001763
49919000,0.0324,0.013523,0.002678,0.000431,0.001645
49920000,0.0324,0.013523,0.002678,0.000431,0.001645
49921000,0.0324,0.013523,0.002678,0.000431,0.001763
49922000,0.0324,0.013523,0.002678,0.000431,0.001645
49923000,0.0324,0.013523,0.002678,0.000431,0.001763
49924000,0.0324,0.013523,0.002678,0.000431,0.001528
49925000,0.0324,0.013523,0.002678,0.000431,0.001763
49926000,0.0324,0.013523,0.002678,0.000431,0.001528
49927000,0.0324,0.013523,0.002678,0.000431,0.001763
49928000,0.0324,0.013523,0.002678,0.000431,0.001645
49929000,0.0324,0.013523,0.002678,0.000431,0.001763
49930000,0.0324,0.013523,0.002678,0.000431,0.001645
49931000,0.0324,0.013523,0.002678,0.000431,0.001645
49932000,0.0324,0.013523,0.002678,0.000431,0.001528
49933000,0.0324,0.013523,0.002678,0.000431,0.001645
49934000,0.0324,0.013523,0.002678,0.000431,0.001880
49935000,0.0324,0.013523,0.002678,0.000431,0.001645
49936000,0.0324,0.013523,0.002678,0.000431,0.001645
49937000,0.0324,0.013523,0.002678,0.000431,0.001645
49938000,0.0324,0.013523,0.002678,0.000431,0.001645
49939000,0.0324,0.013523,0.002678,0.000431,0.001763
49940000,0.0324,0.013523,0.002678,0.000431,0.001645
49941000,0.0324,0.013523,0.002678,0.000431,0.001645
49942000,0.0324,0.013523,0.002678,0.000431,0.001763
49943000,0.0324,0.013523,0.002678,0.000431,0.001645
49944000,0.0324,0.013523,0.002678,0.000431,0.001645
49945000,0.0324,0.013523,0.002678,0.000431,0.001763
49946000,0.0324,0.013523,0.002678,0.000431,0.001645
49947000,0.0324,0.013523,0.002678,0.000431,0.001645
49948000,0.0324,0.013523,0.002678,0.000431,0.001645
49949000,0.0324,0.013523,0.002678,0.000431,0.001645
49950000,0.0324,0.013523,0.002678,0.000431,0.001763
49951000,0.0324,0.013523,0.002678,0.000431,0.001645
49952000,0.0324,0.013523,0.002678,0.000431,0.001645
49953000,0.0324,0.013523,0.002678,0.000431,0.003408
49954000,0.0324,0.013523,0.002678,0.000431,0.000823
49955000,0.0324,0.013523,0.002678,0.000431,0.000823
49956000,0.0324,0.013523,0.002678,0.000431,0.010578
49957000,0.0324,0.013523,0.002678,0.000431,0.425334
49958000,0.0324,0.013523,0.002678,0.000431,0.612792
49959000,0.0324,0.013523,0.002678,0.000431,0.131749
49960000,0.0324,0.013523,0.002678,0.000431,0.133394
49961000,0.0324,0.013523,0.002678,0.000431,0.154079
49962000,0.0324,0.013523,0.002678,0.000431,0.597278
49963000,0.0324,0.013523,0.002678,0.000431,0.289237
49964000,0.0324,0.013523,0.002678,0.000431,0.222598
49965000,0.0324,0.013523,0.002678,0.000431,0.238465
49966000,0.0324,0.013523,0.002678,0.000431,0.149143
49967000,0.0324,0.013523,0.002678,0.000431,0.158075
49968000,0.0324,0.013523,0.002678,0.000431,0.109536
49969000,0.0324,0.013523,0.002678,0.000431,0.460240
49970000,0.0324,0.013523,0.002678,0.000431,0.107068
49971000,0.0324,0.013523,0.002678,0.000431,0.053475
49972000,0.0324,0.013523,0.002678,0.000431,0.046659
49973000,0.0324,0.013523,0.002678,0.000431,0.043368
49974000,0.0324,0.013523,0.002678,0.000431,0.030322
49975000,0.0324,0.013523,0.002678,0.000431,0.026561
49976000,0.0324,0.013523,0.002678,0.000431,0.017982
49977000,0.0324,0.013523,0.002678,0.000431,0.016101
49978000,0.0324,0.013523,0.002678,0.000431,0.016924
49979000,0.0324,0.013523,0.002678,0.000431,0.014809
49980000,0.0324,0.013523,0.002678,0.000431,0.017982
49981000,0.0324,0.013523,0.002678,0.000431,0.007992
49982000,0.0324,0.013523,0.002678,0.000431,0.005994
49983000,0.0324,0.013523,0.002678,0.000431,0.005876
49984000,0.0324,0.013523,0.002678,0.000431,0.004584
49985000,0.0324,0.013523,0.002678,0.000431,0.003526
49986000,0.0324,0.013523,0.002678,0.000431,0.003291
49987000,0.0324,0.013523,0.002678,0.000431,0.003526
49988000,0.0324,0.013523,0.002678,0.000431,0.004584
49989000,0.0324,0.013523,0.002678,0.000431,0.003996
49990000,0.0324,0.013523,0.002678,0.000431,0.004113
49991000,0.0324,0.013523,0.002678,0.000431,0.001880
49992000,0.0324,0.013523,0.002678,0.000431,0.001645
49993000,0.0324,0.013523,0.002678,0.000431,0.001763
49994000,0.0324,0.013523,0.002678,0.000431,0.001763
49995000,0.0324,0.013523,0.002678,0.000431,0.001645
49996000,0.0324,0.013523,0.002678,0.000431,0.001880
49997000,0.0324,0.013523,0.002678,0.000431,0.001528
49998000,0.0324,0.013523,0.002678,0.000431,0.001763
49999000,0.0324,0.013523,0.002678,0.000431,0.001645
