Cycle,Area(mm^2),PeakDynamic(W),SubthresholdLeakage(W),GateLeakage(W),RunTimeDynamic(W)
96000000,0.0324,0.013523,0.002678,0.000431,0.003173
96001000,0.0324,0.013523,0.002678,0.000431,0.003056
96002000,0.0324,0.013523,0.002678,0.000431,0.003173
96003000,0.0324,0.013523,0.002678,0.000431,0.003526
96004000,0.0324,0.013523,0.002678,0.000431,0.002938
96005000,0.0324,0.013523,0.002678,0.000431,0.003291
96006000,0.0324,0.013523,0.002678,0.000431,0.003643
96007000,0.0324,0.013523,0.002678,0.000431,0.002586
96008000,0.0324,0.013523,0.002678,0.000431,0.003291
96009000,0.0324,0.013523,0.002678,0.000431,0.003291
96010000,0.0324,0.013523,0.002678,0.000431,0.003173
96011000,0.0324,0.013523,0.002678,0.000431,0.003291
96012000,0.0324,0.013523,0.002678,0.000431,0.003056
96013000,0.0324,0.013523,0.002678,0.000431,0.003291
96014000,0.0324,0.013523,0.002678,0.000431,0.003408
96015000,0.0324,0.013523,0.002678,0.000431,0.003878
96016000,0.0324,0.013523,0.002678,0.000431,0.002703
96017000,0.0324,0.013523,0.002678,0.000431,0.002351
96018000,0.0324,0.013523,0.002678,0.000431,0.002351
96019000,0.0324,0.013523,0.002678,0.000431,0.002703
96020000,0.0324,0.013523,0.002678,0.000431,0.001998
96021000,0.0324,0.013523,0.002678,0.000431,0.002703
96022000,0.0324,0.013523,0.002678,0.000431,0.002233
96023000,0.0324,0.013523,0.002678,0.000431,0.002468
96024000,0.0324,0.013523,0.002678,0.000431,0.002586
96025000,0.0324,0.013523,0.002678,0.000431,0.002116
96026000,0.0324,0.013523,0.002678,0.000431,0.002586
96027000,0.0324,0.013523,0.002678,0.000431,0.002351
96028000,0.0324,0.013523,0.002678,0.000431,0.002351
96029000,0.0324,0.013523,0.002678,0.000431,0.002586
96030000,0.0324,0.013523,0.002678,0.000431,0.002351
96031000,0.0324,0.013523,0.002678,0.000431,0.002351
96032000,0.0324,0.013523,0.002678,0.000431,0.002586
96033000,0.0324,0.013523,0.002678,0.000431,0.002116
96034000,0.0324,0.013523,0.002678,0.000431,0.002586
96035000,0.0324,0.013523,0.002678,0.000431,0.002233
96036000,0.0324,0.013523,0.002678,0.000431,0.002468
96037000,0.0324,0.013523,0.002678,0.000431,0.002586
96038000,0.0324,0.013523,0.002678,0.000431,0.002351
96039000,0.0324,0.013523,0.002678,0.000431,0.002586
96040000,0.0324,0.013523,0.002678,0.000431,0.002233
96041000,0.0324,0.013523,0.002678,0.000431,0.002468
96042000,0.0324,0.013523,0.002678,0.000431,0.002586
96043000,0.0324,0.013523,0.002678,0.000431,0.002233
96044000,0.0324,0.013523,0.002678,0.000431,0.002468
96045000,0.0324,0.013523,0.002678,0.000431,0.005759
96046000,0.0324,0.013523,0.002678,0.000431,0.001645
96047000,0.0324,0.013523,0.002678,0.000431,0.001645
96048000,0.0324,0.013523,0.002678,0.000431,0.001645
96049000,0.0324,0.013523,0.002678,0.000431,0.001410
96050000,0.0324,0.013523,0.002678,0.000431,0.001645
96051000,0.0324,0.013523,0.002678,0.000431,0.001645
96052000,0.0324,0.013523,0.002678,0.000431,0.001645
96053000,0.0324,0.013523,0.002678,0.000431,0.001410
96054000,0.0324,0.013523,0.002678,0.000431,0.001645
96055000,0.0324,0.013523,0.002678,0.000431,0.001645
96056000,0.0324,0.013523,0.002678,0.000431,0.001410
96057000,0.0324,0.013523,0.002678,0.000431,0.001880
96058000,0.0324,0.013523,0.002678,0.000431,0.001175
96059000,0.0324,0.013523,0.002678,0.000431,0.001880
96060000,0.0324,0.013523,0.002678,0.000431,0.001528
96061000,0.0324,0.013523,0.002678,0.000431,0.001528
96062000,0.0324,0.013523,0.002678,0.000431,0.001880
96063000,0.0324,0.013523,0.002678,0.000431,0.001175
96064000,0.0324,0.013523,0.002678,0.000431,0.001880
96065000,0.0324,0.013523,0.002678,0.000431,0.001410
96066000,0.0324,0.013523,0.002678,0.000431,0.001645
96067000,0.0324,0.013523,0.002678,0.000431,0.001645
96068000,0.0324,0.013523,0.002678,0.000431,0.001410
96069000,0.0324,0.013523,0.002678,0.000431,0.001645
96070000,0.0324,0.013523,0.002678,0.000431,0.001645
96071000,0.0324,0.013523,0.002678,0.000431,0.001410
96072000,0.0324,0.013523,0.002678,0.000431,0.001645
96073000,0.0324,0.013523,0.002678,0.000431,0.001410
96074000,0.0324,0.013523,0.002678,0.000431,0.001645
96075000,0.0324,0.013523,0.002678,0.000431,0.001880
96076000,0.0324,0.013523,0.002678,0.000431,0.001175
96077000,0.0324,0.013523,0.002678,0.000431,0.001880
96078000,0.0324,0.013523,0.002678,0.000431,0.001293
96079000,0.0324,0.013523,0.002678,0.000431,0.001763
96080000,0.0324,0.013523,0.002678,0.000431,0.001880
96081000,0.0324,0.013523,0.002678,0.000431,0.001175
96082000,0.0324,0.013523,0.002678,0.000431,0.001880
96083000,0.0324,0.013523,0.002678,0.000431,0.001293
96084000,0.0324,0.013523,0.002678,0.000431,0.001763
96085000,0.0324,0.013523,0.002678,0.000431,0.001645
96086000,0.0324,0.013523,0.002678,0.000431,0.001410
96087000,0.0324,0.013523,0.002678,0.000431,0.001645
96088000,0.0324,0.013523,0.002678,0.000431,0.001528
96089000,0.0324,0.013523,0.002678,0.000431,0.001528
96090000,0.0324,0.013523,0.002678,0.000431,0.001645
96091000,0.0324,0.013523,0.002678,0.000431,0.001645
96092000,0.0324,0.013523,0.002678,0.000431,0.001410
96093000,0.0324,0.013523,0.002678,0.000431,0.001645
96094000,0.0324,0.013523,0.002678,0.000431,0.001410
96095000,0.0324,0.013523,0.002678,0.000431,0.001880
96096000,0.0324,0.013523,0.002678,0.000431,0.001410
96097000,0.0324,0.013523,0.002678,0.000431,0.001645
96098000,0.0324,0.013523,0.002678,0.000431,0.001528
96099000,0.0324,0.013523,0.002678,0.000431,0.001528
96100000,0.0324,0.013523,0.002678,0.000431,0.001880
96101000,0.0324,0.013523,0.002678,0.000431,0.001175
96102000,0.0324,0.013523,0.002678,0.000431,0.001880
96103000,0.0324,0.013523,0.002678,0.000431,0.001528
96104000,0.0324,0.013523,0.002678,0.000431,0.001528
96105000,0.0324,0.013523,0.002678,0.000431,0.001645
96106000,0.0324,0.013523,0.002678,0.000431,0.001410
96107000,0.0324,0.013523,0.002678,0.000431,0.001645
96108000,0.0324,0.013523,0.002678,0.000431,0.001645
96109000,0.0324,0.013523,0.002678,0.000431,0.001645
96110000,0.0324,0.013523,0.002678,0.000431,0.001410
96111000,0.0324,0.013523,0.002678,0.000431,0.001645
96112000,0.0324,0.013523,0.002678,0.000431,0.001645
96113000,0.0324,0.013523,0.002678,0.000431,0.001645
96114000,0.0324,0.013523,0.002678,0.000431,0.001410
96115000,0.0324,0.013523,0.002678,0.000431,0.001645
96116000,0.0324,0.013523,0.002678,0.000431,0.001293
96117000,0.0324,0.013523,0.002678,0.000431,0.001763
96118000,0.0324,0.013523,0.002678,0.000431,0.001880
96119000,0.0324,0.013523,0.002678,0.000431,0.001175
96120000,0.0324,0.013523,0.002678,0.000431,0.001763
96121000,0.0324,0.013523,0.002678,0.000431,0.001175
96122000,0.0324,0.013523,0.002678,0.000431,0.000705
96123000,0.0324,0.013523,0.002678,0.000431,0.000940
96124000,0.0324,0.013523,0.002678,0.000431,0.000823
96125000,0.0324,0.013523,0.002678,0.000431,0.000823
96126000,0.0324,0.013523,0.002678,0.000431,0.000940
96127000,0.0324,0.013523,0.002678,0.000431,0.000823
96128000,0.0324,0.013523,0.002678,0.000431,0.000823
96129000,0.0324,0.013523,0.002678,0.000431,0.000940
96130000,0.0324,0.013523,0.002678,0.000431,0.000705
96131000,0.0324,0.013523,0.002678,0.000431,0.000940
96132000,0.0324,0.013523,0.002678,0.000431,0.000823
96133000,0.0324,0.013523,0.002678,0.000431,0.000823
96134000,0.0324,0.013523,0.002678,0.000431,0.000940
96135000,0.0324,0.013523,0.002678,0.000431,0.000823
96136000,0.0324,0.013523,0.002678,0.000431,0.000823
96137000,0.0324,0.013523,0.002678,0.000431,0.000940
96138000,0.0324,0.013523,0.002678,0.000431,0.000705
96139000,0.0324,0.013523,0.002678,0.000431,0.000940
96140000,0.0324,0.013523,0.002678,0.000431,0.000823
96141000,0.0324,0.013523,0.002678,0.000431,0.000823
96142000,0.0324,0.013523,0.002678,0.000431,0.000940
96143000,0.0324,0.013523,0.002678,0.000431,0.000823
96144000,0.0324,0.013523,0.002678,0.000431,0.000823
96145000,0.0324,0.013523,0.002678,0.000431,0.000940
96146000,0.0324,0.013523,0.002678,0.000431,0.000705
96147000,0.0324,0.013523,0.002678,0.000431,0.000940
96148000,0.0324,0.013523,0.002678,0.000431,0.000823
96149000,0.0324,0.013523,0.002678,0.000431,0.000823
96150000,0.0324,0.013523,0.002678,0.000431,0.000940
96151000,0.0324,0.013523,0.002678,0.000431,0.000823
96152000,0.0324,0.013523,0.002678,0.000431,0.000823
96153000,0.0324,0.013523,0.002678,0.000431,0.000940
96154000,0.0324,0.013523,0.002678,0.000431,0.000705
96155000,0.0324,0.013523,0.002678,0.000431,0.000940
96156000,0.0324,0.013523,0.002678,0.000431,0.000823
96157000,0.0324,0.013523,0.002678,0.000431,0.000823
96158000,0.0324,0.013523,0.002678,0.000431,0.000940
96159000,0.0324,0.013523,0.002678,0.000431,0.000823
96160000,0.0324,0.013523,0.002678,0.000431,0.000823
96161000,0.0324,0.013523,0.002678,0.000431,0.000823
96162000,0.0324,0.013523,0.002678,0.000431,0.000823
96163000,0.0324,0.013523,0.002678,0.000431,0.000940
96164000,0.0324,0.013523,0.002678,0.000431,0.000823
96165000,0.0324,0.013523,0.002678,0.000431,0.000823
96166000,0.0324,0.013523,0.002678,0.000431,0.000940
96167000,0.0324,0.013523,0.002678,0.000431,0.000823
96168000,0.0324,0.013523,0.002678,0.000431,0.000823
96169000,0.0324,0.013523,0.002678,0.000431,0.211198
96170000,0.0324,0.013523,0.002678,0.000431,0.532520
96171000,0.0324,0.013523,0.002678,0.000431,0.494794
96172000,0.0324,0.013523,0.002678,0.000431,0.133512
96173000,0.0324,0.013523,0.002678,0.000431,0.134805
96174000,0.0324,0.013523,0.002678,0.000431,0.601627
96175000,0.0324,0.013523,0.002678,0.000431,0.268434
96176000,0.0324,0.013523,0.002678,0.000431,0.292880
96177000,0.0324,0.013523,0.002678,0.000431,0.230120
96178000,0.0324,0.013523,0.002678,0.000431,0.149378
96179000,0.0324,0.013523,0.002678,0.000431,0.117058
96180000,0.0324,0.013523,0.002678,0.000431,0.327786
96181000,0.0324,0.013523,0.002678,0.000431,0.334955
96182000,0.0324,0.013523,0.002678,0.000431,0.114472
96183000,0.0324,0.013523,0.002678,0.000431,0.089439
96184000,0.0324,0.013523,0.002678,0.000431,0.092730
96185000,0.0324,0.013523,0.002678,0.000431,0.071222
96186000,0.0324,0.013523,0.002678,0.000431,0.066756
96187000,0.0324,0.013523,0.002678,0.000431,0.053710
96188000,0.0324,0.013523,0.002678,0.000431,0.051477
96189000,0.0324,0.013523,0.002678,0.000431,0.035258
96190000,0.0324,0.013523,0.002678,0.000431,0.033143
96191000,0.0324,0.013523,0.002678,0.000431,0.021625
96192000,0.0324,0.013523,0.002678,0.000431,0.012105
96193000,0.0324,0.013523,0.002678,0.000431,0.012576
96194000,0.0324,0.013523,0.002678,0.000431,0.007757
96195000,0.0324,0.013523,0.002678,0.000431,0.007522
96196000,0.0324,0.013523,0.002678,0.000431,0.008932
96197000,0.0324,0.013523,0.002678,0.000431,0.008109
96198000,0.0324,0.013523,0.002678,0.000431,0.008345
96199000,0.0324,0.013523,0.002678,0.000431,0.003526
96200000,0.0324,0.013523,0.002678,0.000431,0.003173
96201000,0.0324,0.013523,0.002678,0.000431,0.003408
96202000,0.0324,0.013523,0.002678,0.000431,0.003173
96203000,0.0324,0.013523,0.002678,0.000431,0.003408
96204000,0.0324,0.013523,0.002678,0.000431,0.003408
96205000,0.0324,0.013523,0.002678,0.000431,0.003408
96206000,0.0324,0.013523,0.002678,0.000431,0.003173
96207000,0.0324,0.013523,0.002678,0.000431,0.003173
96208000,0.0324,0.013523,0.002678,0.000431,0.003526
96209000,0.0324,0.013523,0.002678,0.000431,0.003173
96210000,0.0324,0.013523,0.002678,0.000431,0.003291
96211000,0.0324,0.013523,0.002678,0.000431,0.004819
96212000,0.0324,0.013523,0.002678,0.000431,0.001528
96213000,0.0324,0.013523,0.002678,0.000431,0.001763
96214000,0.0324,0.013523,0.002678,0.000431,0.001645
96215000,0.0324,0.013523,0.002678,0.000431,0.001645
96216000,0.0324,0.013523,0.002678,0.000431,0.001880
96217000,0.0324,0.013523,0.002678,0.000431,0.001528
96218000,0.0324,0.013523,0.002678,0.000431,0.001645
96219000,0.0324,0.013523,0.002678,0.000431,0.004113
96220000,0.0324,0.013523,0.002678,0.000431,0.000823
96221000,0.0324,0.013523,0.002678,0.000431,0.000823
96222000,0.0324,0.013523,0.002678,0.000431,0.000823
96223000,0.0324,0.013523,0.002678,0.000431,0.000823
96224000,0.0324,0.013523,0.002678,0.000431,0.000823
96225000,0.0324,0.013523,0.002678,0.000431,0.000940
96226000,0.0324,0.013523,0.002678,0.000431,0.000823
96227000,0.0324,0.013523,0.002678,0.000431,0.000823
96228000,0.0324,0.013523,0.002678,0.000431,0.000705
96229000,0.0324,0.013523,0.002678,0.000431,0.000940
96230000,0.0324,0.013523,0.002678,0.000431,0.000940
96231000,0.0324,0.013523,0.002678,0.000431,0.001645
96232000,0.0324,0.013523,0.002678,0.000431,0.338129
96233000,0.0324,0.013523,0.002678,0.000431,0.679783
96234000,0.0324,0.013523,0.002678,0.000431,0.254449
96235000,0.0324,0.013523,0.002678,0.000431,0.138448
96236000,0.0324,0.013523,0.002678,0.000431,0.157135
96237000,0.0324,0.013523,0.002678,0.000431,0.579414
96238000,0.0324,0.013523,0.002678,0.000431,0.247984
96239000,0.0324,0.013523,0.002678,0.000431,0.318266
96240000,0.0324,0.013523,0.002678,0.000431,0.196507
96241000,0.0324,0.013523,0.002678,0.000431,0.147263
96242000,0.0324,0.013523,0.002678,0.000431,0.122112
96243000,0.0324,0.013523,0.002678,0.000431,0.308276
96244000,0.0324,0.013523,0.002678,0.000431,0.307454
96245000,0.0324,0.013523,0.002678,0.000431,0.059587
96246000,0.0324,0.013523,0.002678,0.000431,0.051477
96247000,0.0324,0.013523,0.002678,0.000431,0.045836
96248000,0.0324,0.013523,0.002678,0.000431,0.047599
96249000,0.0324,0.013523,0.002678,0.000431,0.032673
96250000,0.0324,0.013523,0.002678,0.000431,0.020215
96251000,0.0324,0.013523,0.002678,0.000431,0.022213
96252000,0.0324,0.013523,0.002678,0.000431,0.020215
96253000,0.0324,0.013523,0.002678,0.000431,0.017277
96254000,0.0324,0.013523,0.002678,0.000431,0.016571
96255000,0.0324,0.013523,0.002678,0.000431,0.011870
96256000,0.0324,0.013523,0.002678,0.000431,0.011048
96257000,0.0324,0.013523,0.002678,0.000431,0.007404
96258000,0.0324,0.013523,0.002678,0.000431,0.007169
96259000,0.0324,0.013523,0.002678,0.000431,0.007874
96260000,0.0324,0.013523,0.002678,0.000431,0.010578
96261000,0.0324,0.013523,0.002678,0.000431,0.003761
96262000,0.0324,0.013523,0.002678,0.000431,0.003056
96263000,0.0324,0.013523,0.002678,0.000431,0.003643
96264000,0.0324,0.013523,0.002678,0.000431,0.003408
96265000,0.0324,0.013523,0.002678,0.000431,0.003408
96266000,0.0324,0.013523,0.002678,0.000431,0.003408
96267000,0.0324,0.013523,0.002678,0.000431,0.003408
96268000,0.0324,0.013523,0.002678,0.000431,0.003408
96269000,0.0324,0.013523,0.002678,0.000431,0.004349
96270000,0.0324,0.013523,0.002678,0.000431,0.003996
96271000,0.0324,0.013523,0.002678,0.000431,0.002468
96272000,0.0324,0.013523,0.002678,0.000431,0.002586
96273000,0.0324,0.013523,0.002678,0.000431,0.002351
96274000,0.0324,0.013523,0.002678,0.000431,0.002703
96275000,0.0324,0.013523,0.002678,0.000431,0.004584
96276000,0.0324,0.013523,0.002678,0.000431,0.001763
96277000,0.0324,0.013523,0.002678,0.000431,0.001763
96278000,0.0324,0.013523,0.002678,0.000431,0.001645
96279000,0.0324,0.013523,0.002678,0.000431,0.001880
96280000,0.0324,0.013523,0.002678,0.000431,0.001645
96281000,0.0324,0.013523,0.002678,0.000431,0.002703
96282000,0.0324,0.013523,0.002678,0.000431,0.000823
96283000,0.0324,0.013523,0.002678,0.000431,0.000823
96284000,0.0324,0.013523,0.002678,0.000431,0.000823
96285000,0.0324,0.013523,0.002678,0.000431,0.000823
96286000,0.0324,0.013523,0.002678,0.000431,0.000940
96287000,0.0324,0.013523,0.002678,0.000431,0.000823
96288000,0.0324,0.013523,0.002678,0.000431,0.000823
96289000,0.0324,0.013523,0.002678,0.000431,0.000823
96290000,0.0324,0.013523,0.002678,0.000431,0.000823
96291000,0.0324,0.013523,0.002678,0.000431,0.000823
96292000,0.0324,0.013523,0.002678,0.000431,0.000823
96293000,0.0324,0.013523,0.002678,0.000431,0.000940
96294000,0.0324,0.013523,0.002678,0.000431,0.000705
96295000,0.0324,0.013523,0.002678,0.000431,0.000940
96296000,0.0324,0.013523,0.002678,0.000431,0.000705
96297000,0.0324,0.013523,0.002678,0.000431,0.000940
96298000,0.0324,0.013523,0.002678,0.000431,0.000823
96299000,0.0324,0.013523,0.002678,0.000431,0.000823
96300000,0.0324,0.013523,0.002678,0.000431,0.000940
96301000,0.0324,0.013523,0.002678,0.000431,0.000705
96302000,0.0324,0.013523,0.002678,0.000431,0.000940
96303000,0.0324,0.013523,0.002678,0.000431,0.000823
96304000,0.0324,0.013523,0.002678,0.000431,0.000823
96305000,0.0324,0.013523,0.002678,0.000431,0.000823
96306000,0.0324,0.013523,0.002678,0.000431,0.000823
96307000,0.0324,0.013523,0.002678,0.000431,0.000940
96308000,0.0324,0.013523,0.002678,0.000431,0.000705
96309000,0.0324,0.013523,0.002678,0.000431,0.000940
96310000,0.0324,0.013523,0.002678,0.000431,0.000823
96311000,0.0324,0.013523,0.002678,0.000431,0.000823
96312000,0.0324,0.013523,0.002678,0.000431,0.000705
96313000,0.0324,0.013523,0.002678,0.000431,0.071340
96314000,0.0324,0.013523,0.002678,0.000431,0.497262
96315000,0.0324,0.013523,0.002678,0.000431,0.583292
96316000,0.0324,0.013523,0.002678,0.000431,0.132572
96317000,0.0324,0.013523,0.002678,0.000431,0.133042
96318000,0.0324,0.013523,0.002678,0.000431,0.579296
96319000,0.0324,0.013523,0.002678,0.000431,0.268669
96320000,0.0324,0.013523,0.002678,0.000431,0.242461
96321000,0.0324,0.013523,0.002678,0.000431,0.290412
96322000,0.0324,0.013523,0.002678,0.000431,0.151259
96323000,0.0324,0.013523,0.002678,0.000431,0.162189
96324000,0.0324,0.013523,0.002678,0.000431,0.099429
96325000,0.0324,0.013523,0.002678,0.000431,0.486802
96326000,0.0324,0.013523,0.002678,0.000431,0.155490
96327000,0.0324,0.013523,0.002678,0.000431,0.089204
96328000,0.0324,0.013523,0.002678,0.000431,0.070869
96329000,0.0324,0.013523,0.002678,0.000431,0.059117
96330000,0.0324,0.013523,0.002678,0.000431,0.053123
96331000,0.0324,0.013523,0.002678,0.000431,0.035141
96332000,0.0324,0.013523,0.002678,0.000431,0.027149
96333000,0.0324,0.013523,0.002678,0.000431,0.026326
96334000,0.0324,0.013523,0.002678,0.000431,0.021390
96335000,0.0324,0.013523,0.002678,0.000431,0.024563
96336000,0.0324,0.013523,0.002678,0.000431,0.024916
96337000,0.0324,0.013523,0.002678,0.000431,0.020685
96338000,0.0324,0.013523,0.002678,0.000431,0.017864
96339000,0.0324,0.013523,0.002678,0.000431,0.013046
96340000,0.0324,0.013523,0.002678,0.000431,0.017277
96341000,0.0324,0.013523,0.002678,0.000431,0.013281
96342000,0.0324,0.013523,0.002678,0.000431,0.006817
96343000,0.0324,0.013523,0.002678,0.000431,0.006817
96344000,0.0324,0.013523,0.002678,0.000431,0.006817
96345000,0.0324,0.013523,0.002678,0.000431,0.006934
96346000,0.0324,0.013523,0.002678,0.000431,0.006934
96347000,0.0324,0.013523,0.002678,0.000431,0.008580
96348000,0.0324,0.013523,0.002678,0.000431,0.005759
96349000,0.0324,0.013523,0.002678,0.000431,0.006111
96350000,0.0324,0.013523,0.002678,0.000431,0.005994
96351000,0.0324,0.013523,0.002678,0.000431,0.005994
96352000,0.0324,0.013523,0.002678,0.000431,0.005994
96353000,0.0324,0.013523,0.002678,0.000431,0.009990
96354000,0.0324,0.013523,0.002678,0.000431,0.003408
96355000,0.0324,0.013523,0.002678,0.000431,0.002586
96356000,0.0324,0.013523,0.002678,0.000431,0.002703
96357000,0.0324,0.013523,0.002678,0.000431,0.002586
96358000,0.0324,0.013523,0.002678,0.000431,0.002468
96359000,0.0324,0.013523,0.002678,0.000431,0.002586
96360000,0.0324,0.013523,0.002678,0.000431,0.002703
96361000,0.0324,0.013523,0.002678,0.000431,0.002468
96362000,0.0324,0.013523,0.002678,0.000431,0.002586
96363000,0.0324,0.013523,0.002678,0.000431,0.002703
96364000,0.0324,0.013523,0.002678,0.000431,0.002586
96365000,0.0324,0.013523,0.002678,0.000431,0.002468
96366000,0.0324,0.013523,0.002678,0.000431,0.002586
96367000,0.0324,0.013523,0.002678,0.000431,0.002586
96368000,0.0324,0.013523,0.002678,0.000431,0.002703
96369000,0.0324,0.013523,0.002678,0.000431,0.002586
96370000,0.0324,0.013523,0.002678,0.000431,0.002468
96371000,0.0324,0.013523,0.002678,0.000431,0.004349
96372000,0.0324,0.013523,0.002678,0.000431,0.001763
96373000,0.0324,0.013523,0.002678,0.000431,0.001645
96374000,0.0324,0.013523,0.002678,0.000431,0.001763
96375000,0.0324,0.013523,0.002678,0.000431,0.001880
96376000,0.0324,0.013523,0.002678,0.000431,0.001763
96377000,0.0324,0.013523,0.002678,0.000431,0.001645
96378000,0.0324,0.013523,0.002678,0.000431,0.001763
96379000,0.0324,0.013523,0.002678,0.000431,0.001763
96380000,0.0324,0.013523,0.002678,0.000431,0.001763
96381000,0.0324,0.013523,0.002678,0.000431,0.001763
96382000,0.0324,0.013523,0.002678,0.000431,0.001763
96383000,0.0324,0.013523,0.002678,0.000431,0.001763
96384000,0.0324,0.013523,0.002678,0.000431,0.001645
96385000,0.0324,0.013523,0.002678,0.000431,0.001763
96386000,0.0324,0.013523,0.002678,0.000431,0.001880
96387000,0.0324,0.013523,0.002678,0.000431,0.001763
96388000,0.0324,0.013523,0.002678,0.000431,0.001528
96389000,0.0324,0.013523,0.002678,0.000431,0.001880
96390000,0.0324,0.013523,0.002678,0.000431,0.001880
96391000,0.0324,0.013523,0.002678,0.000431,0.001645
96392000,0.0324,0.013523,0.002678,0.000431,0.001645
96393000,0.0324,0.013523,0.002678,0.000431,0.001880
96394000,0.0324,0.013523,0.002678,0.000431,0.001763
96395000,0.0324,0.013523,0.002678,0.000431,0.001763
96396000,0.0324,0.013523,0.002678,0.000431,0.001645
96397000,0.0324,0.013523,0.002678,0.000431,0.001880
96398000,0.0324,0.013523,0.002678,0.000431,0.001763
96399000,0.0324,0.013523,0.002678,0.000431,0.001645
96400000,0.0324,0.013523,0.002678,0.000431,0.001763
96401000,0.0324,0.013523,0.002678,0.000431,0.001763
96402000,0.0324,0.013523,0.002678,0.000431,0.001763
96403000,0.0324,0.013523,0.002678,0.000431,0.001763
96404000,0.0324,0.013523,0.002678,0.000431,0.001763
96405000,0.0324,0.013523,0.002678,0.000431,0.001880
96406000,0.0324,0.013523,0.002678,0.000431,0.001528
96407000,0.0324,0.013523,0.002678,0.000431,0.001763
96408000,0.0324,0.013523,0.002678,0.000431,0.001880
96409000,0.0324,0.013523,0.002678,0.000431,0.001880
96410000,0.0324,0.013523,0.002678,0.000431,0.001645
96411000,0.0324,0.013523,0.002678,0.000431,0.001645
96412000,0.0324,0.013523,0.002678,0.000431,0.001880
96413000,0.0324,0.013523,0.002678,0.000431,0.001763
96414000,0.0324,0.013523,0.002678,0.000431,0.001645
96415000,0.0324,0.013523,0.002678,0.000431,0.001763
96416000,0.0324,0.013523,0.002678,0.000431,0.001880
96417000,0.0324,0.013523,0.002678,0.000431,0.001763
96418000,0.0324,0.013523,0.002678,0.000431,0.001645
96419000,0.0324,0.013523,0.002678,0.000431,0.001763
96420000,0.0324,0.013523,0.002678,0.000431,0.001763
96421000,0.0324,0.013523,0.002678,0.000431,0.002938
96422000,0.0324,0.013523,0.002678,0.000431,0.078274
96423000,0.0324,0.013523,0.002678,0.000431,0.599511
96424000,0.0324,0.013523,0.002678,0.000431,0.542980
96425000,0.0324,0.013523,0.002678,0.000431,0.134922
96426000,0.0324,0.013523,0.002678,0.000431,0.134805
96427000,0.0324,0.013523,0.002678,0.000431,0.636180
96428000,0.0324,0.013523,0.002678,0.000431,0.266907
96429000,0.0324,0.013523,0.002678,0.000431,0.241638
96430000,0.0324,0.013523,0.002678,0.000431,0.220013
96431000,0.0324,0.013523,0.002678,0.000431,0.146205
96432000,0.0324,0.013523,0.002678,0.000431,0.152434
96433000,0.0324,0.013523,0.002678,0.000431,0.212373
96434000,0.0324,0.013523,0.002678,0.000431,0.386668
96435000,0.0324,0.013523,0.002678,0.000431,0.060292
96436000,0.0324,0.013523,0.002678,0.000431,0.047834
96437000,0.0324,0.013523,0.002678,0.000431,0.041252
96438000,0.0324,0.013523,0.002678,0.000431,0.036904
96439000,0.0324,0.013523,0.002678,0.000431,0.031027
96440000,0.0324,0.013523,0.002678,0.000431,0.031145
96441000,0.0324,0.013523,0.002678,0.000431,0.020097
96442000,0.0324,0.013523,0.002678,0.000431,0.021743
96443000,0.0324,0.013523,0.002678,0.000431,0.023623
96444000,0.0324,0.013523,0.002678,0.000431,0.019040
96445000,0.0324,0.013523,0.002678,0.000431,0.016807
96446000,0.0324,0.013523,0.002678,0.000431,0.014573
96447000,0.0324,0.013523,0.002678,0.000431,0.015514
96448000,0.0324,0.013523,0.002678,0.000431,0.010342
96449000,0.0324,0.013523,0.002678,0.000431,0.008580
96450000,0.0324,0.013523,0.002678,0.000431,0.009755
96451000,0.0324,0.013523,0.002678,0.000431,0.009167
96452000,0.0324,0.013523,0.002678,0.000431,0.008697
96453000,0.0324,0.013523,0.002678,0.000431,0.008227
96454000,0.0324,0.013523,0.002678,0.000431,0.009637
96455000,0.0324,0.013523,0.002678,0.000431,0.006347
96456000,0.0324,0.013523,0.002678,0.000431,0.005759
96457000,0.0324,0.013523,0.002678,0.000431,0.005524
96458000,0.0324,0.013523,0.002678,0.000431,0.005759
96459000,0.0324,0.013523,0.002678,0.000431,0.005876
96460000,0.0324,0.013523,0.002678,0.000431,0.005524
96461000,0.0324,0.013523,0.002678,0.000431,0.005524
96462000,0.0324,0.013523,0.002678,0.000431,0.009167
96463000,0.0324,0.013523,0.002678,0.000431,0.007169
96464000,0.0324,0.013523,0.002678,0.000431,0.002116
96465000,0.0324,0.013523,0.002678,0.000431,0.002468
96466000,0.0324,0.013523,0.002678,0.000431,0.002116
96467000,0.0324,0.013523,0.002678,0.000431,0.002468
96468000,0.0324,0.013523,0.002678,0.000431,0.002233
96469000,0.0324,0.013523,0.002678,0.000431,0.002586
96470000,0.0324,0.013523,0.002678,0.000431,0.002586
96471000,0.0324,0.013523,0.002678,0.000431,0.002116
96472000,0.0324,0.013523,0.002678,0.000431,0.002233
96473000,0.0324,0.013523,0.002678,0.000431,0.002468
96474000,0.0324,0.013523,0.002678,0.000431,0.002468
96475000,0.0324,0.013523,0.002678,0.000431,0.002586
96476000,0.0324,0.013523,0.002678,0.000431,0.001645
96477000,0.0324,0.013523,0.002678,0.000431,0.001763
96478000,0.0324,0.013523,0.002678,0.000431,0.001763
96479000,0.0324,0.013523,0.002678,0.000431,0.003878
96480000,0.0324,0.013523,0.002678,0.000431,0.000940
96481000,0.0324,0.013523,0.002678,0.000431,0.000940
96482000,0.0324,0.013523,0.002678,0.000431,0.000705
96483000,0.0324,0.013523,0.002678,0.000431,0.000940
96484000,0.0324,0.013523,0.002678,0.000431,0.000705
96485000,0.0324,0.013523,0.002678,0.000431,0.000940
96486000,0.0324,0.013523,0.002678,0.000431,0.000940
96487000,0.0324,0.013523,0.002678,0.000431,0.000823
96488000,0.0324,0.013523,0.002678,0.000431,0.070987
96489000,0.0324,0.013523,0.002678,0.000431,0.452601
96490000,0.0324,0.013523,0.002678,0.000431,0.601979
96491000,0.0324,0.013523,0.002678,0.000431,0.130926
96492000,0.0324,0.013523,0.002678,0.000431,0.134922
96493000,0.0324,0.013523,0.002678,0.000431,0.543568
96494000,0.0324,0.013523,0.002678,0.000431,0.224361
96495000,0.0324,0.013523,0.002678,0.000431,0.248572
96496000,0.0324,0.013523,0.002678,0.000431,0.361047
96497000,0.0324,0.013523,0.002678,0.000431,0.143502
96498000,0.0324,0.013523,0.002678,0.000431,0.139506
96499000,0.0324,0.013523,0.002678,0.000431,0.119409
96500000,0.0324,0.013523,0.002678,0.000431,0.314388
96501000,0.0324,0.013523,0.002678,0.000431,0.270080
96502000,0.0324,0.013523,0.002678,0.000431,0.043603
96503000,0.0324,0.013523,0.002678,0.000431,0.033613
96504000,0.0324,0.013523,0.002678,0.000431,0.035141
96505000,0.0324,0.013523,0.002678,0.000431,0.024446
96506000,0.0324,0.013523,0.002678,0.000431,0.021743
96507000,0.0324,0.013523,0.002678,0.000431,0.017747
96508000,0.0324,0.013523,0.002678,0.000431,0.012458
96509000,0.0324,0.013523,0.002678,0.000431,0.014338
96510000,0.0324,0.013523,0.002678,0.000431,0.009285
96511000,0.0324,0.013523,0.002678,0.000431,0.012458
96512000,0.0324,0.013523,0.002678,0.000431,0.008227
96513000,0.0324,0.013523,0.002678,0.000431,0.008462
96514000,0.0324,0.013523,0.002678,0.000431,0.010107
96515000,0.0324,0.013523,0.002678,0.000431,0.008345
96516000,0.0324,0.013523,0.002678,0.000431,0.008109
96517000,0.0324,0.013523,0.002678,0.000431,0.007287
96518000,0.0324,0.013523,0.002678,0.000431,0.007757
96519000,0.0324,0.013523,0.002678,0.000431,0.007287
96520000,0.0324,0.013523,0.002678,0.000431,0.006229
96521000,0.0324,0.013523,0.002678,0.000431,0.007287
96522000,0.0324,0.013523,0.002678,0.000431,0.007522
96523000,0.0324,0.013523,0.002678,0.000431,0.005994
96524000,0.0324,0.013523,0.002678,0.000431,0.006817
96525000,0.0324,0.013523,0.002678,0.000431,0.005289
96526000,0.0324,0.013523,0.002678,0.000431,0.005524
96527000,0.0324,0.013523,0.002678,0.000431,0.005994
96528000,0.0324,0.013523,0.002678,0.000431,0.004936
96529000,0.0324,0.013523,0.002678,0.000431,0.006582
96530000,0.0324,0.013523,0.002678,0.000431,0.006817
96531000,0.0324,0.013523,0.002678,0.000431,0.004231
96532000,0.0324,0.013523,0.002678,0.000431,0.005406
96533000,0.0324,0.013523,0.002678,0.000431,0.002703
96534000,0.0324,0.013523,0.002678,0.000431,0.002468
96535000,0.0324,0.013523,0.002678,0.000431,0.002586
96536000,0.0324,0.013523,0.002678,0.000431,0.002821
96537000,0.0324,0.013523,0.002678,0.000431,0.002351
96538000,0.0324,0.013523,0.002678,0.000431,0.002703
96539000,0.0324,0.013523,0.002678,0.000431,0.002586
96540000,0.0324,0.013523,0.002678,0.000431,0.002586
96541000,0.0324,0.013523,0.002678,0.000431,0.002703
96542000,0.0324,0.013523,0.002678,0.000431,0.002351
96543000,0.0324,0.013523,0.002678,0.000431,0.002821
96544000,0.0324,0.013523,0.002678,0.000431,0.002468
96545000,0.0324,0.013523,0.002678,0.000431,0.002586
96546000,0.0324,0.013523,0.002678,0.000431,0.002468
96547000,0.0324,0.013523,0.002678,0.000431,0.002821
96548000,0.0324,0.013523,0.002678,0.000431,0.002703
96549000,0.0324,0.013523,0.002678,0.000431,0.002233
96550000,0.0324,0.013523,0.002678,0.000431,0.002703
96551000,0.0324,0.013523,0.002678,0.000431,0.003996
96552000,0.0324,0.013523,0.002678,0.000431,0.001880
96553000,0.0324,0.013523,0.002678,0.000431,0.001528
96554000,0.0324,0.013523,0.002678,0.000431,0.001763
96555000,0.0324,0.013523,0.002678,0.000431,0.001880
96556000,0.0324,0.013523,0.002678,0.000431,0.001763
96557000,0.0324,0.013523,0.002678,0.000431,0.001528
96558000,0.0324,0.013523,0.002678,0.000431,0.003408
96559000,0.0324,0.013523,0.002678,0.000431,0.000940
96560000,0.0324,0.013523,0.002678,0.000431,0.000940
96561000,0.0324,0.013523,0.002678,0.000431,0.000705
96562000,0.0324,0.013523,0.002678,0.000431,0.000940
96563000,0.0324,0.013523,0.002678,0.000431,0.000940
96564000,0.0324,0.013523,0.002678,0.000431,0.000823
96565000,0.0324,0.013523,0.002678,0.000431,0.000823
96566000,0.0324,0.013523,0.002678,0.000431,0.000940
96567000,0.0324,0.013523,0.002678,0.000431,0.000823
96568000,0.0324,0.013523,0.002678,0.000431,0.000940
96569000,0.0324,0.013523,0.002678,0.000431,0.000823
96570000,0.0324,0.013523,0.002678,0.000431,0.000940
96571000,0.0324,0.013523,0.002678,0.000431,0.000823
96572000,0.0324,0.013523,0.002678,0.000431,0.000823
96573000,0.0324,0.013523,0.002678,0.000431,0.000940
96574000,0.0324,0.013523,0.002678,0.000431,0.000940
96575000,0.0324,0.013523,0.002678,0.000431,0.000823
96576000,0.0324,0.013523,0.002678,0.000431,0.000823
96577000,0.0324,0.013523,0.002678,0.000431,0.000940
96578000,0.0324,0.013523,0.002678,0.000431,0.000940
96579000,0.0324,0.013523,0.002678,0.000431,0.000823
96580000,0.0324,0.013523,0.002678,0.000431,0.014691
96581000,0.0324,0.013523,0.002678,0.000431,0.470818
96582000,0.0324,0.013523,0.002678,0.000431,0.598689
96583000,0.0324,0.013523,0.002678,0.000431,0.133042
96584000,0.0324,0.013523,0.002678,0.000431,0.132102
96585000,0.0324,0.013523,0.002678,0.000431,0.433914
96586000,0.0324,0.013523,0.002678,0.000431,0.405472
96587000,0.0324,0.013523,0.002678,0.000431,0.221776
96588000,0.0324,0.013523,0.002678,0.000431,0.318854
96589000,0.0324,0.013523,0.002678,0.000431,0.158663
96590000,0.0324,0.013523,0.002678,0.000431,0.142914
96591000,0.0324,0.013523,0.002678,0.000431,0.130339
96592000,0.0324,0.013523,0.002678,0.000431,0.264673
96593000,0.0324,0.013523,0.002678,0.000431,0.344945
96594000,0.0324,0.013523,0.002678,0.000431,0.067109
96595000,0.0324,0.013523,0.002678,0.000431,0.061820
96596000,0.0324,0.013523,0.002678,0.000431,0.052065
96597000,0.0324,0.013523,0.002678,0.000431,0.041252
96598000,0.0324,0.013523,0.002678,0.000431,0.032790
96599000,0.0324,0.013523,0.002678,0.000431,0.029970
96600000,0.0324,0.013523,0.002678,0.000431,0.030205
96601000,0.0324,0.013523,0.002678,0.000431,0.023858
96602000,0.0324,0.013523,0.002678,0.000431,0.025504
96603000,0.0324,0.013523,0.002678,0.000431,0.024563
96604000,0.0324,0.013523,0.002678,0.000431,0.019862
96605000,0.0324,0.013523,0.002678,0.000431,0.020097
96606000,0.0324,0.013523,0.002678,0.000431,0.017982
96607000,0.0324,0.013523,0.002678,0.000431,0.017394
96608000,0.0324,0.013523,0.002678,0.000431,0.009637
96609000,0.0324,0.013523,0.002678,0.000431,0.009285
96610000,0.0324,0.013523,0.002678,0.000431,0.008815
96611000,0.0324,0.013523,0.002678,0.000431,0.011753
96612000,0.0324,0.013523,0.002678,0.000431,0.007992
96613000,0.0324,0.013523,0.002678,0.000431,0.006934
96614000,0.0324,0.013523,0.002678,0.000431,0.006111
96615000,0.0324,0.013523,0.002678,0.000431,0.008109
96616000,0.0324,0.013523,0.002678,0.000431,0.005994
96617000,0.0324,0.013523,0.002678,0.000431,0.005641
96618000,0.0324,0.013523,0.002678,0.000431,0.005759
96619000,0.0324,0.013523,0.002678,0.000431,0.006111
96620000,0.0324,0.013523,0.002678,0.000431,0.005641
96621000,0.0324,0.013523,0.002678,0.000431,0.006111
96622000,0.0324,0.013523,0.002678,0.000431,0.008227
96623000,0.0324,0.013523,0.002678,0.000431,0.005054
96624000,0.0324,0.013523,0.002678,0.000431,0.004936
96625000,0.0324,0.013523,0.002678,0.000431,0.004819
96626000,0.0324,0.013523,0.002678,0.000431,0.005054
96627000,0.0324,0.013523,0.002678,0.000431,0.005054
96628000,0.0324,0.013523,0.002678,0.000431,0.005289
96629000,0.0324,0.013523,0.002678,0.000431,0.004584
96630000,0.0324,0.013523,0.002678,0.000431,0.005054
96631000,0.0324,0.013523,0.002678,0.000431,0.005171
96632000,0.0324,0.013523,0.002678,0.000431,0.004701
96633000,0.0324,0.013523,0.002678,0.000431,0.004936
96634000,0.0324,0.013523,0.002678,0.000431,0.005171
96635000,0.0324,0.013523,0.002678,0.000431,0.004701
96636000,0.0324,0.013523,0.002678,0.000431,0.005054
96637000,0.0324,0.013523,0.002678,0.000431,0.004819
96638000,0.0324,0.013523,0.002678,0.000431,0.005171
96639000,0.0324,0.013523,0.002678,0.000431,0.005054
96640000,0.0324,0.013523,0.002678,0.000431,0.003996
96641000,0.0324,0.013523,0.002678,0.000431,0.004231
96642000,0.0324,0.013523,0.002678,0.000431,0.006582
96643000,0.0324,0.013523,0.002678,0.000431,0.003643
96644000,0.0324,0.013523,0.002678,0.000431,0.003408
96645000,0.0324,0.013523,0.002678,0.000431,0.003408
96646000,0.0324,0.013523,0.002678,0.000431,0.003291
96647000,0.0324,0.013523,0.002678,0.000431,0.003526
96648000,0.0324,0.013523,0.002678,0.000431,0.003526
96649000,0.0324,0.013523,0.002678,0.000431,0.003173
96650000,0.0324,0.013523,0.002678,0.000431,0.003526
96651000,0.0324,0.013523,0.002678,0.000431,0.003408
96652000,0.0324,0.013523,0.002678,0.000431,0.003173
96653000,0.0324,0.013523,0.002678,0.000431,0.003408
96654000,0.0324,0.013523,0.002678,0.000431,0.003526
96655000,0.0324,0.013523,0.002678,0.000431,0.003408
96656000,0.0324,0.013523,0.002678,0.000431,0.003291
96657000,0.0324,0.013523,0.002678,0.000431,0.003291
96658000,0.0324,0.013523,0.002678,0.000431,0.003408
96659000,0.0324,0.013523,0.002678,0.000431,0.003643
96660000,0.0324,0.013523,0.002678,0.000431,0.003173
96661000,0.0324,0.013523,0.002678,0.000431,0.003408
96662000,0.0324,0.013523,0.002678,0.000431,0.003173
96663000,0.0324,0.013523,0.002678,0.000431,0.003761
96664000,0.0324,0.013523,0.002678,0.000431,0.003408
96665000,0.0324,0.013523,0.002678,0.000431,0.003173
96666000,0.0324,0.013523,0.002678,0.000431,0.003526
96667000,0.0324,0.013523,0.002678,0.000431,0.003173
96668000,0.0324,0.013523,0.002678,0.000431,0.003643
96669000,0.0324,0.013523,0.002678,0.000431,0.003291
96670000,0.0324,0.013523,0.002678,0.000431,0.003408
96671000,0.0324,0.013523,0.002678,0.000431,0.003526
96672000,0.0324,0.013523,0.002678,0.000431,0.003173
96673000,0.0324,0.013523,0.002678,0.000431,0.003643
96674000,0.0324,0.013523,0.002678,0.000431,0.003056
96675000,0.0324,0.013523,0.002678,0.000431,0.003643
96676000,0.0324,0.013523,0.002678,0.000431,0.004701
96677000,0.0324,0.013523,0.002678,0.000431,0.002468
96678000,0.0324,0.013523,0.002678,0.000431,0.002586
96679000,0.0324,0.013523,0.002678,0.000431,0.002351
96680000,0.0324,0.013523,0.002678,0.000431,0.002586
96681000,0.0324,0.013523,0.002678,0.000431,0.002468
96682000,0.0324,0.013523,0.002678,0.000431,0.002703
96683000,0.0324,0.013523,0.002678,0.000431,0.002233
96684000,0.0324,0.013523,0.002678,0.000431,0.003408
96685000,0.0324,0.013523,0.002678,0.000431,0.002468
96686000,0.0324,0.013523,0.002678,0.000431,0.001880
96687000,0.0324,0.013523,0.002678,0.000431,0.001880
96688000,0.0324,0.013523,0.002678,0.000431,0.001410
96689000,0.0324,0.013523,0.002678,0.000431,0.001880
96690000,0.0324,0.013523,0.002678,0.000431,0.001410
96691000,0.0324,0.013523,0.002678,0.000431,0.001880
96692000,0.0324,0.013523,0.002678,0.000431,0.001645
96693000,0.0324,0.013523,0.002678,0.000431,0.001645
96694000,0.0324,0.013523,0.002678,0.000431,0.001645
96695000,0.0324,0.013523,0.002678,0.000431,0.001645
96696000,0.0324,0.013523,0.002678,0.000431,0.001880
96697000,0.0324,0.013523,0.002678,0.000431,0.001410
96698000,0.0324,0.013523,0.002678,0.000431,0.001880
96699000,0.0324,0.013523,0.002678,0.000431,0.001645
96700000,0.0324,0.013523,0.002678,0.000431,0.001645
96701000,0.0324,0.013523,0.002678,0.000431,0.001645
96702000,0.0324,0.013523,0.002678,0.000431,0.001645
96703000,0.0324,0.013523,0.002678,0.000431,0.001645
96704000,0.0324,0.013523,0.002678,0.000431,0.001645
96705000,0.0324,0.013523,0.002678,0.000431,0.001645
96706000,0.0324,0.013523,0.002678,0.000431,0.001645
96707000,0.0324,0.013523,0.002678,0.000431,0.001880
96708000,0.0324,0.013523,0.002678,0.000431,0.001645
96709000,0.0324,0.013523,0.002678,0.000431,0.001645
96710000,0.0324,0.013523,0.002678,0.000431,0.001410
96711000,0.0324,0.013523,0.002678,0.000431,0.001880
96712000,0.0324,0.013523,0.002678,0.000431,0.001880
96713000,0.0324,0.013523,0.002678,0.000431,0.001410
96714000,0.0324,0.013523,0.002678,0.000431,0.001880
96715000,0.0324,0.013523,0.002678,0.000431,0.001410
96716000,0.0324,0.013523,0.002678,0.000431,0.001880
96717000,0.0324,0.013523,0.002678,0.000431,0.001645
96718000,0.0324,0.013523,0.002678,0.000431,0.001645
96719000,0.0324,0.013523,0.002678,0.000431,0.001880
96720000,0.0324,0.013523,0.002678,0.000431,0.001410
96721000,0.0324,0.013523,0.002678,0.000431,0.001880
96722000,0.0324,0.013523,0.002678,0.000431,0.001645
96723000,0.0324,0.013523,0.002678,0.000431,0.001645
96724000,0.0324,0.013523,0.002678,0.000431,0.001645
96725000,0.0324,0.013523,0.002678,0.000431,0.001645
96726000,0.0324,0.013523,0.002678,0.000431,0.001645
96727000,0.0324,0.013523,0.002678,0.000431,0.001645
96728000,0.0324,0.013523,0.002678,0.000431,0.001880
96729000,0.0324,0.013523,0.002678,0.000431,0.001528
96730000,0.0324,0.013523,0.002678,0.000431,0.001763
96731000,0.0324,0.013523,0.002678,0.000431,0.001645
96732000,0.0324,0.013523,0.002678,0.000431,0.001645
96733000,0.0324,0.013523,0.002678,0.000431,0.001410
96734000,0.0324,0.013523,0.002678,0.000431,0.001880
96735000,0.0324,0.013523,0.002678,0.000431,0.001880
96736000,0.0324,0.013523,0.002678,0.000431,0.001410
96737000,0.0324,0.013523,0.002678,0.000431,0.001880
96738000,0.0324,0.013523,0.002678,0.000431,0.001410
96739000,0.0324,0.013523,0.002678,0.000431,0.001880
96740000,0.0324,0.013523,0.002678,0.000431,0.001645
96741000,0.0324,0.013523,0.002678,0.000431,0.001645
96742000,0.0324,0.013523,0.002678,0.000431,0.001880
96743000,0.0324,0.013523,0.002678,0.000431,0.001410
96744000,0.0324,0.013523,0.002678,0.000431,0.001880
96745000,0.0324,0.013523,0.002678,0.000431,0.001645
96746000,0.0324,0.013523,0.002678,0.000431,0.001645
96747000,0.0324,0.013523,0.002678,0.000431,0.001645
96748000,0.0324,0.013523,0.002678,0.000431,0.001645
96749000,0.0324,0.013523,0.002678,0.000431,0.001880
96750000,0.0324,0.013523,0.002678,0.000431,0.001410
96751000,0.0324,0.013523,0.002678,0.000431,0.001880
96752000,0.0324,0.013523,0.002678,0.000431,0.001645
96753000,0.0324,0.013523,0.002678,0.000431,0.001410
96754000,0.0324,0.013523,0.002678,0.000431,0.001880
96755000,0.0324,0.013523,0.002678,0.000431,0.001645
96756000,0.0324,0.013523,0.002678,0.000431,0.001645
96757000,0.0324,0.013523,0.002678,0.000431,0.001645
96758000,0.0324,0.013523,0.002678,0.000431,0.001645
96759000,0.0324,0.013523,0.002678,0.000431,0.001645
96760000,0.0324,0.013523,0.002678,0.000431,0.001880
96761000,0.0324,0.013523,0.002678,0.000431,0.001645
96762000,0.0324,0.013523,0.002678,0.000431,0.001645
96763000,0.0324,0.013523,0.002678,0.000431,0.001410
96764000,0.0324,0.013523,0.002678,0.000431,0.001880
96765000,0.0324,0.013523,0.002678,0.000431,0.001880
96766000,0.0324,0.013523,0.002678,0.000431,0.001410
96767000,0.0324,0.013523,0.002678,0.000431,0.001880
96768000,0.0324,0.013523,0.002678,0.000431,0.001410
96769000,0.0324,0.013523,0.002678,0.000431,0.001880
96770000,0.0324,0.013523,0.002678,0.000431,0.001645
96771000,0.0324,0.013523,0.002678,0.000431,0.001645
96772000,0.0324,0.013523,0.002678,0.000431,0.001880
96773000,0.0324,0.013523,0.002678,0.000431,0.001410
96774000,0.0324,0.013523,0.002678,0.000431,0.001880
96775000,0.0324,0.013523,0.002678,0.000431,0.001410
96776000,0.0324,0.013523,0.002678,0.000431,0.001880
96777000,0.0324,0.013523,0.002678,0.000431,0.001645
96778000,0.0324,0.013523,0.002678,0.000431,0.001645
96779000,0.0324,0.013523,0.002678,0.000431,0.001645
96780000,0.0324,0.013523,0.002678,0.000431,0.001645
96781000,0.0324,0.013523,0.002678,0.000431,0.001880
96782000,0.0324,0.013523,0.002678,0.000431,0.001410
96783000,0.0324,0.013523,0.002678,0.000431,0.001880
96784000,0.0324,0.013523,0.002678,0.000431,0.001645
96785000,0.0324,0.013523,0.002678,0.000431,0.001645
96786000,0.0324,0.013523,0.002678,0.000431,0.001410
96787000,0.0324,0.013523,0.002678,0.000431,0.001880
96788000,0.0324,0.013523,0.002678,0.000431,0.001645
96789000,0.0324,0.013523,0.002678,0.000431,0.001645
96790000,0.0324,0.013523,0.002678,0.000431,0.001645
96791000,0.0324,0.013523,0.002678,0.000431,0.001645
96792000,0.0324,0.013523,0.002678,0.000431,0.001880
96793000,0.0324,0.013523,0.002678,0.000431,0.001410
96794000,0.0324,0.013523,0.002678,0.000431,0.001880
96795000,0.0324,0.013523,0.002678,0.000431,0.001645
96796000,0.0324,0.013523,0.002678,0.000431,0.001645
96797000,0.0324,0.013523,0.002678,0.000431,0.001645
96798000,0.0324,0.013523,0.002678,0.000431,0.001645
96799000,0.0324,0.013523,0.002678,0.000431,0.001645
96800000,0.0324,0.013523,0.002678,0.000431,0.001645
96801000,0.0324,0.013523,0.002678,0.000431,0.001645
96802000,0.0324,0.013523,0.002678,0.000431,0.001645
96803000,0.0324,0.013523,0.002678,0.000431,0.001880
96804000,0.0324,0.013523,0.002678,0.000431,0.001645
96805000,0.0324,0.013523,0.002678,0.000431,0.001645
96806000,0.0324,0.013523,0.002678,0.000431,0.001410
96807000,0.0324,0.013523,0.002678,0.000431,0.001880
96808000,0.0324,0.013523,0.002678,0.000431,0.001880
96809000,0.0324,0.013523,0.002678,0.000431,0.001410
96810000,0.0324,0.013523,0.002678,0.000431,0.001880
96811000,0.0324,0.013523,0.002678,0.000431,0.001410
96812000,0.0324,0.013523,0.002678,0.000431,0.001880
96813000,0.0324,0.013523,0.002678,0.000431,0.001645
96814000,0.0324,0.013523,0.002678,0.000431,0.001645
96815000,0.0324,0.013523,0.002678,0.000431,0.001880
96816000,0.0324,0.013523,0.002678,0.000431,0.001410
96817000,0.0324,0.013523,0.002678,0.000431,0.001880
96818000,0.0324,0.013523,0.002678,0.000431,0.001645
96819000,0.0324,0.013523,0.002678,0.000431,0.001645
96820000,0.0324,0.013523,0.002678,0.000431,0.001645
96821000,0.0324,0.013523,0.002678,0.000431,0.001645
96822000,0.0324,0.013523,0.002678,0.000431,0.001880
96823000,0.0324,0.013523,0.002678,0.000431,0.001410
96824000,0.0324,0.013523,0.002678,0.000431,0.001880
96825000,0.0324,0.013523,0.002678,0.000431,0.001645
96826000,0.0324,0.013523,0.002678,0.000431,0.001645
96827000,0.0324,0.013523,0.002678,0.000431,0.001645
96828000,0.0324,0.013523,0.002678,0.000431,0.001645
96829000,0.0324,0.013523,0.002678,0.000431,0.001645
96830000,0.0324,0.013523,0.002678,0.000431,0.016689
96831000,0.0324,0.013523,0.002678,0.000431,0.506782
96832000,0.0324,0.013523,0.002678,0.000431,0.595515
96833000,0.0324,0.013523,0.002678,0.000431,0.135628
96834000,0.0324,0.013523,0.002678,0.000431,0.133512
96835000,0.0324,0.013523,0.002678,0.000431,0.487977
96836000,0.0324,0.013523,0.002678,0.000431,0.341889
96837000,0.0324,0.013523,0.002678,0.000431,0.251628
96838000,0.0324,0.013523,0.002678,0.000431,0.359754
96839000,0.0324,0.013523,0.002678,0.000431,0.137861
96840000,0.0324,0.013523,0.002678,0.000431,0.154079
96841000,0.0324,0.013523,0.002678,0.000431,0.103072
96842000,0.0324,0.013523,0.002678,0.000431,0.415227
96843000,0.0324,0.013523,0.002678,0.000431,0.151494
96844000,0.0324,0.013523,0.002678,0.000431,0.037374
96845000,0.0324,0.013523,0.002678,0.000431,0.029500
96846000,0.0324,0.013523,0.002678,0.000431,0.025034
96847000,0.0324,0.013523,0.002678,0.000431,0.026914
96848000,0.0324,0.013523,0.002678,0.000431,0.023506
96849000,0.0324,0.013523,0.002678,0.000431,0.020332
96850000,0.0324,0.013523,0.002678,0.000431,0.019862
96851000,0.0324,0.013523,0.002678,0.000431,0.018452
96852000,0.0324,0.013523,0.002678,0.000431,0.019040
96853000,0.0324,0.013523,0.002678,0.000431,0.019862
96854000,0.0324,0.013523,0.002678,0.000431,0.019157
96855000,0.0324,0.013523,0.002678,0.000431,0.012105
96856000,0.0324,0.013523,0.002678,0.000431,0.010930
96857000,0.0324,0.013523,0.002678,0.000431,0.011870
96858000,0.0324,0.013523,0.002678,0.000431,0.011870
96859000,0.0324,0.013523,0.002678,0.000431,0.013398
96860000,0.0324,0.013523,0.002678,0.000431,0.011048
96861000,0.0324,0.013523,0.002678,0.000431,0.008109
96862000,0.0324,0.013523,0.002678,0.000431,0.008580
96863000,0.0324,0.013523,0.002678,0.000431,0.005876
96864000,0.0324,0.013523,0.002678,0.000431,0.005759
96865000,0.0324,0.013523,0.002678,0.000431,0.006347
96866000,0.0324,0.013523,0.002678,0.000431,0.006817
96867000,0.0324,0.013523,0.002678,0.000431,0.005406
96868000,0.0324,0.013523,0.002678,0.000431,0.005054
96869000,0.0324,0.013523,0.002678,0.000431,0.005289
96870000,0.0324,0.013523,0.002678,0.000431,0.005524
96871000,0.0324,0.013523,0.002678,0.000431,0.004584
96872000,0.0324,0.013523,0.002678,0.000431,0.005406
96873000,0.0324,0.013523,0.002678,0.000431,0.005171
96874000,0.0324,0.013523,0.002678,0.000431,0.005171
96875000,0.0324,0.013523,0.002678,0.000431,0.005289
96876000,0.0324,0.013523,0.002678,0.000431,0.005171
96877000,0.0324,0.013523,0.002678,0.000431,0.005289
96878000,0.0324,0.013523,0.002678,0.000431,0.005054
96879000,0.0324,0.013523,0.002678,0.000431,0.005171
96880000,0.0324,0.013523,0.002678,0.000431,0.005289
96881000,0.0324,0.013523,0.002678,0.000431,0.005289
96882000,0.0324,0.013523,0.002678,0.000431,0.004819
96883000,0.0324,0.013523,0.002678,0.000431,0.005406
96884000,0.0324,0.013523,0.002678,0.000431,0.005406
96885000,0.0324,0.013523,0.002678,0.000431,0.005171
96886000,0.0324,0.013523,0.002678,0.000431,0.006111
96887000,0.0324,0.013523,0.002678,0.000431,0.004466
96888000,0.0324,0.013523,0.002678,0.000431,0.004349
96889000,0.0324,0.013523,0.002678,0.000431,0.004231
96890000,0.0324,0.013523,0.002678,0.000431,0.004349
96891000,0.0324,0.013523,0.002678,0.000431,0.004466
96892000,0.0324,0.013523,0.002678,0.000431,0.004466
96893000,0.0324,0.013523,0.002678,0.000431,0.003996
96894000,0.0324,0.013523,0.002678,0.000431,0.004584
96895000,0.0324,0.013523,0.002678,0.000431,0.005641
96896000,0.0324,0.013523,0.002678,0.000431,0.003408
96897000,0.0324,0.013523,0.002678,0.000431,0.003761
96898000,0.0324,0.013523,0.002678,0.000431,0.003173
96899000,0.0324,0.013523,0.002678,0.000431,0.005406
96900000,0.0324,0.013523,0.002678,0.000431,0.002586
96901000,0.0324,0.013523,0.002678,0.000431,0.002351
96902000,0.0324,0.013523,0.002678,0.000431,0.004584
96903000,0.0324,0.013523,0.002678,0.000431,0.001410
96904000,0.0324,0.013523,0.002678,0.000431,0.001645
96905000,0.0324,0.013523,0.002678,0.000431,0.001645
96906000,0.0324,0.013523,0.002678,0.000431,0.001410
96907000,0.0324,0.013523,0.002678,0.000431,0.001645
96908000,0.0324,0.013523,0.002678,0.000431,0.001645
96909000,0.0324,0.013523,0.002678,0.000431,0.001410
96910000,0.0324,0.013523,0.002678,0.000431,0.001645
96911000,0.0324,0.013523,0.002678,0.000431,0.001645
96912000,0.0324,0.013523,0.002678,0.000431,0.001645
96913000,0.0324,0.013523,0.002678,0.000431,0.001645
96914000,0.0324,0.013523,0.002678,0.000431,0.001410
96915000,0.0324,0.013523,0.002678,0.000431,0.001645
96916000,0.0324,0.013523,0.002678,0.000431,0.001293
96917000,0.0324,0.013523,0.002678,0.000431,0.001763
96918000,0.0324,0.013523,0.002678,0.000431,0.001880
96919000,0.0324,0.013523,0.002678,0.000431,0.001175
96920000,0.0324,0.013523,0.002678,0.000431,0.001880
96921000,0.0324,0.013523,0.002678,0.000431,0.001293
96922000,0.0324,0.013523,0.002678,0.000431,0.001763
96923000,0.0324,0.013523,0.002678,0.000431,0.001763
96924000,0.0324,0.013523,0.002678,0.000431,0.001293
96925000,0.0324,0.013523,0.002678,0.000431,0.001880
96926000,0.0324,0.013523,0.002678,0.000431,0.001293
96927000,0.0324,0.013523,0.002678,0.000431,0.001763
96928000,0.0324,0.013523,0.002678,0.000431,0.001645
96929000,0.0324,0.013523,0.002678,0.000431,0.001410
96930000,0.0324,0.013523,0.002678,0.000431,0.001645
96931000,0.0324,0.013523,0.002678,0.000431,0.001528
96932000,0.0324,0.013523,0.002678,0.000431,0.001763
96933000,0.0324,0.013523,0.002678,0.000431,0.001410
96934000,0.0324,0.013523,0.002678,0.000431,0.001645
96935000,0.0324,0.013523,0.002678,0.000431,0.001645
96936000,0.0324,0.013523,0.002678,0.000431,0.001410
96937000,0.0324,0.013523,0.002678,0.000431,0.001645
96938000,0.0324,0.013523,0.002678,0.000431,0.001645
96939000,0.0324,0.013523,0.002678,0.000431,0.001410
96940000,0.0324,0.013523,0.002678,0.000431,0.001645
96941000,0.0324,0.013523,0.002678,0.000431,0.001645
96942000,0.0324,0.013523,0.002678,0.000431,0.001410
96943000,0.0324,0.013523,0.002678,0.000431,0.001880
96944000,0.0324,0.013523,0.002678,0.000431,0.001410
96945000,0.0324,0.013523,0.002678,0.000431,0.001645
96946000,0.0324,0.013523,0.002678,0.000431,0.001410
96947000,0.0324,0.013523,0.002678,0.000431,0.001645
96948000,0.0324,0.013523,0.002678,0.000431,0.001880
96949000,0.0324,0.013523,0.002678,0.000431,0.001175
96950000,0.0324,0.013523,0.002678,0.000431,0.001880
96951000,0.0324,0.013523,0.002678,0.000431,0.001410
96952000,0.0324,0.013523,0.002678,0.000431,0.001645
96953000,0.0324,0.013523,0.002678,0.000431,0.001645
96954000,0.0324,0.013523,0.002678,0.000431,0.001410
96955000,0.0324,0.013523,0.002678,0.000431,0.001880
96956000,0.0324,0.013523,0.002678,0.000431,0.001410
96957000,0.0324,0.013523,0.002678,0.000431,0.001645
96958000,0.0324,0.013523,0.002678,0.000431,0.001645
96959000,0.0324,0.013523,0.002678,0.000431,0.001410
96960000,0.0324,0.013523,0.002678,0.000431,0.001645
96961000,0.0324,0.013523,0.002678,0.000431,0.001645
96962000,0.0324,0.013523,0.002678,0.000431,0.001410
96963000,0.0324,0.013523,0.002678,0.000431,0.001645
96964000,0.0324,0.013523,0.002678,0.000431,0.001645
96965000,0.0324,0.013523,0.002678,0.000431,0.001410
96966000,0.0324,0.013523,0.002678,0.000431,0.001880
96967000,0.0324,0.013523,0.002678,0.000431,0.001175
96968000,0.0324,0.013523,0.002678,0.000431,0.001880
96969000,0.0324,0.013523,0.002678,0.000431,0.001293
96970000,0.0324,0.013523,0.002678,0.000431,0.001763
96971000,0.0324,0.013523,0.002678,0.000431,0.001880
96972000,0.0324,0.013523,0.002678,0.000431,0.001175
96973000,0.0324,0.013523,0.002678,0.000431,0.001880
96974000,0.0324,0.013523,0.002678,0.000431,0.001293
96975000,0.0324,0.013523,0.002678,0.000431,0.001763
96976000,0.0324,0.013523,0.002678,0.000431,0.001645
96977000,0.0324,0.013523,0.002678,0.000431,0.001410
96978000,0.0324,0.013523,0.002678,0.000431,0.001645
96979000,0.0324,0.013523,0.002678,0.000431,0.001528
96980000,0.0324,0.013523,0.002678,0.000431,0.001763
96981000,0.0324,0.013523,0.002678,0.000431,0.001410
96982000,0.0324,0.013523,0.002678,0.000431,0.001645
96983000,0.0324,0.013523,0.002678,0.000431,0.001645
96984000,0.0324,0.013523,0.002678,0.000431,0.001528
96985000,0.0324,0.013523,0.002678,0.000431,0.001528
96986000,0.0324,0.013523,0.002678,0.000431,0.001645
96987000,0.0324,0.013523,0.002678,0.000431,0.001410
96988000,0.0324,0.013523,0.002678,0.000431,0.001645
96989000,0.0324,0.013523,0.002678,0.000431,0.001645
96990000,0.0324,0.013523,0.002678,0.000431,0.001410
96991000,0.0324,0.013523,0.002678,0.000431,0.001880
96992000,0.0324,0.013523,0.002678,0.000431,0.001410
96993000,0.0324,0.013523,0.002678,0.000431,0.001645
96994000,0.0324,0.013523,0.002678,0.000431,0.001410
96995000,0.0324,0.013523,0.002678,0.000431,0.001645
96996000,0.0324,0.013523,0.002678,0.000431,0.001880
96997000,0.0324,0.013523,0.002678,0.000431,0.001175
96998000,0.0324,0.013523,0.002678,0.000431,0.001880
96999000,0.0324,0.013523,0.002678,0.000431,0.001293
