Cycle,Area(mm^2),PeakDynamic(W),SubthresholdLeakage(W),GateLeakage(W),RunTimeDynamic(W)
99000000,0.0324,0.013523,0.002678,0.000431,0.003761
99001000,0.0324,0.013523,0.002678,0.000431,0.001645
99002000,0.0324,0.013523,0.002678,0.000431,0.001645
99003000,0.0324,0.013523,0.002678,0.000431,0.001645
99004000,0.0324,0.013523,0.002678,0.000431,0.001645
99005000,0.0324,0.013523,0.002678,0.000431,0.001763
99006000,0.0324,0.013523,0.002678,0.000431,0.001645
99007000,0.0324,0.013523,0.002678,0.000431,0.001645
99008000,0.0324,0.013523,0.002678,0.000431,0.001528
99009000,0.0324,0.013523,0.002678,0.000431,0.001880
99010000,0.0324,0.013523,0.002678,0.000431,0.001763
99011000,0.0324,0.013523,0.002678,0.000431,0.001528
99012000,0.0324,0.013523,0.002678,0.000431,0.001763
99013000,0.0324,0.013523,0.002678,0.000431,0.001528
99014000,0.0324,0.013523,0.002678,0.000431,0.001763
99015000,0.0324,0.013523,0.002678,0.000431,0.001645
99016000,0.0324,0.013523,0.002678,0.000431,0.001645
99017000,0.0324,0.013523,0.002678,0.000431,0.001763
99018000,0.0324,0.013523,0.002678,0.000431,0.001645
99019000,0.0324,0.013523,0.002678,0.000431,0.001763
99020000,0.0324,0.013523,0.002678,0.000431,0.001645
99021000,0.0324,0.013523,0.002678,0.000431,0.001528
99022000,0.0324,0.013523,0.002678,0.000431,0.001763
99023000,0.0324,0.013523,0.002678,0.000431,0.001763
99024000,0.0324,0.013523,0.002678,0.000431,0.001528
99025000,0.0324,0.013523,0.002678,0.000431,0.001763
99026000,0.0324,0.013523,0.002678,0.000431,0.001645
99027000,0.0324,0.013523,0.002678,0.000431,0.001645
99028000,0.0324,0.013523,0.002678,0.000431,0.001763
99029000,0.0324,0.013523,0.002678,0.000431,0.001645
99030000,0.0324,0.013523,0.002678,0.000431,0.001763
99031000,0.0324,0.013523,0.002678,0.000431,0.001528
99032000,0.0324,0.013523,0.002678,0.000431,0.001763
99033000,0.0324,0.013523,0.002678,0.000431,0.001763
99034000,0.0324,0.013523,0.002678,0.000431,0.001528
99035000,0.0324,0.013523,0.002678,0.000431,0.001763
99036000,0.0324,0.013523,0.002678,0.000431,0.001528
99037000,0.0324,0.013523,0.002678,0.000431,0.001763
99038000,0.0324,0.013523,0.002678,0.000431,0.001645
99039000,0.0324,0.013523,0.002678,0.000431,0.001763
99040000,0.0324,0.013523,0.002678,0.000431,0.001645
99041000,0.0324,0.013523,0.002678,0.000431,0.001645
99042000,0.0324,0.013523,0.002678,0.000431,0.001763
99043000,0.0324,0.013523,0.002678,0.000431,0.001645
99044000,0.0324,0.013523,0.002678,0.000431,0.001528
99045000,0.0324,0.013523,0.002678,0.000431,0.001763
99046000,0.0324,0.013523,0.002678,0.000431,0.001763
99047000,0.0324,0.013523,0.002678,0.000431,0.001528
99048000,0.0324,0.013523,0.002678,0.000431,0.001763
99049000,0.0324,0.013523,0.002678,0.000431,0.001645
99050000,0.0324,0.013523,0.002678,0.000431,0.001763
99051000,0.0324,0.013523,0.002678,0.000431,0.001645
99052000,0.0324,0.013523,0.002678,0.000431,0.001645
99053000,0.0324,0.013523,0.002678,0.000431,0.001763
99054000,0.0324,0.013523,0.002678,0.000431,0.001528
99055000,0.0324,0.013523,0.002678,0.000431,0.001763
99056000,0.0324,0.013523,0.002678,0.000431,0.001645
99057000,0.0324,0.013523,0.002678,0.000431,0.001645
99058000,0.0324,0.013523,0.002678,0.000431,0.001763
99059000,0.0324,0.013523,0.002678,0.000431,0.001645
99060000,0.0324,0.013523,0.002678,0.000431,0.001645
99061000,0.0324,0.013523,0.002678,0.000431,0.001528
99062000,0.0324,0.013523,0.002678,0.000431,0.001880
99063000,0.0324,0.013523,0.002678,0.000431,0.001645
99064000,0.0324,0.013523,0.002678,0.000431,0.001528
99065000,0.0324,0.013523,0.002678,0.000431,0.001880
99066000,0.0324,0.013523,0.002678,0.000431,0.001528
99067000,0.0324,0.013523,0.002678,0.000431,0.001763
99068000,0.0324,0.013523,0.002678,0.000431,0.001645
99069000,0.0324,0.013523,0.002678,0.000431,0.001528
99070000,0.0324,0.013523,0.002678,0.000431,0.001880
99071000,0.0324,0.013523,0.002678,0.000431,0.001645
99072000,0.0324,0.013523,0.002678,0.000431,0.001645
99073000,0.0324,0.013523,0.002678,0.000431,0.001763
99074000,0.0324,0.013523,0.002678,0.000431,0.001528
99075000,0.0324,0.013523,0.002678,0.000431,0.001763
99076000,0.0324,0.013523,0.002678,0.000431,0.001763
99077000,0.0324,0.013523,0.002678,0.000431,0.001528
99078000,0.0324,0.013523,0.002678,0.000431,0.001763
99079000,0.0324,0.013523,0.002678,0.000431,0.001645
99080000,0.0324,0.013523,0.002678,0.000431,0.001645
99081000,0.0324,0.013523,0.002678,0.000431,0.003526
99082000,0.0324,0.013523,0.002678,0.000431,0.000940
99083000,0.0324,0.013523,0.002678,0.000431,0.000823
99084000,0.0324,0.013523,0.002678,0.000431,0.000705
99085000,0.0324,0.013523,0.002678,0.000431,0.000940
99086000,0.0324,0.013523,0.002678,0.000431,0.000940
99087000,0.0324,0.013523,0.002678,0.000431,0.000705
99088000,0.0324,0.013523,0.002678,0.000431,0.000940
99089000,0.0324,0.013523,0.002678,0.000431,0.000705
99090000,0.0324,0.013523,0.002678,0.000431,0.000940
99091000,0.0324,0.013523,0.002678,0.000431,0.000823
99092000,0.0324,0.013523,0.002678,0.000431,0.000823
99093000,0.0324,0.013523,0.002678,0.000431,0.000940
99094000,0.0324,0.013523,0.002678,0.000431,0.000705
99095000,0.0324,0.013523,0.002678,0.000431,0.000940
99096000,0.0324,0.013523,0.002678,0.000431,0.000823
99097000,0.0324,0.013523,0.002678,0.000431,0.000823
99098000,0.0324,0.013523,0.002678,0.000431,0.000823
99099000,0.0324,0.013523,0.002678,0.000431,0.000823
99100000,0.0324,0.013523,0.002678,0.000431,0.000823
99101000,0.0324,0.013523,0.002678,0.000431,0.000823
99102000,0.0324,0.013523,0.002678,0.000431,0.000940
99103000,0.0324,0.013523,0.002678,0.000431,0.000705
99104000,0.0324,0.013523,0.002678,0.000431,0.000823
99105000,0.0324,0.013523,0.002678,0.000431,0.000940
99106000,0.0324,0.013523,0.002678,0.000431,0.000823
99107000,0.0324,0.013523,0.002678,0.000431,0.000823
99108000,0.0324,0.013523,0.002678,0.000431,0.000823
99109000,0.0324,0.013523,0.002678,0.000431,0.000705
99110000,0.0324,0.013523,0.002678,0.000431,0.000940
99111000,0.0324,0.013523,0.002678,0.000431,0.000940
99112000,0.0324,0.013523,0.002678,0.000431,0.000823
99113000,0.0324,0.013523,0.002678,0.000431,0.000823
99114000,0.0324,0.013523,0.002678,0.000431,0.000705
99115000,0.0324,0.013523,0.002678,0.000431,0.000940
99116000,0.0324,0.013523,0.002678,0.000431,0.000940
99117000,0.0324,0.013523,0.002678,0.000431,0.000705
99118000,0.0324,0.013523,0.002678,0.000431,0.000940
99119000,0.0324,0.013523,0.002678,0.000431,0.000705
99120000,0.0324,0.013523,0.002678,0.000431,0.000940
99121000,0.0324,0.013523,0.002678,0.000431,0.000823
99122000,0.0324,0.013523,0.002678,0.000431,0.000823
99123000,0.0324,0.013523,0.002678,0.000431,0.000823
99124000,0.0324,0.013523,0.002678,0.000431,0.000823
99125000,0.0324,0.013523,0.002678,0.000431,0.000940
99126000,0.0324,0.013523,0.002678,0.000431,0.000705
99127000,0.0324,0.013523,0.002678,0.000431,0.000940
99128000,0.0324,0.013523,0.002678,0.000431,0.000823
99129000,0.0324,0.013523,0.002678,0.000431,0.000823
99130000,0.0324,0.013523,0.002678,0.000431,0.000823
99131000,0.0324,0.013523,0.002678,0.000431,0.000823
99132000,0.0324,0.013523,0.002678,0.000431,0.000940
99133000,0.0324,0.013523,0.002678,0.000431,0.000705
99134000,0.0324,0.013523,0.002678,0.000431,0.000940
99135000,0.0324,0.013523,0.002678,0.000431,0.000705
99136000,0.0324,0.013523,0.002678,0.000431,0.000940
99137000,0.0324,0.013523,0.002678,0.000431,0.000705
99138000,0.0324,0.013523,0.002678,0.000431,0.000940
99139000,0.0324,0.013523,0.002678,0.000431,0.000940
99140000,0.0324,0.013523,0.002678,0.000431,0.000705
99141000,0.0324,0.013523,0.002678,0.000431,0.000940
99142000,0.0324,0.013523,0.002678,0.000431,0.000705
99143000,0.0324,0.013523,0.002678,0.000431,0.000940
99144000,0.0324,0.013523,0.002678,0.000431,0.000823
99145000,0.0324,0.013523,0.002678,0.000431,0.000823
99146000,0.0324,0.013523,0.002678,0.000431,0.000823
99147000,0.0324,0.013523,0.002678,0.000431,0.000823
99148000,0.0324,0.013523,0.002678,0.000431,0.000940
99149000,0.0324,0.013523,0.002678,0.000431,0.000705
99150000,0.0324,0.013523,0.002678,0.000431,0.000940
99151000,0.0324,0.013523,0.002678,0.000431,0.158310
99152000,0.0324,0.013523,0.002678,0.000431,0.382437
99153000,0.0324,0.013523,0.002678,0.000431,0.542040
99154000,0.0324,0.013523,0.002678,0.000431,0.134922
99155000,0.0324,0.013523,0.002678,0.000431,0.130691
99156000,0.0324,0.013523,0.002678,0.000431,0.561080
99157000,0.0324,0.013523,0.002678,0.000431,0.223186
99158000,0.0324,0.013523,0.002678,0.000431,0.269492
99159000,0.0324,0.013523,0.002678,0.000431,0.325906
99160000,0.0324,0.013523,0.002678,0.000431,0.134805
99161000,0.0324,0.013523,0.002678,0.000431,0.141974
99162000,0.0324,0.013523,0.002678,0.000431,0.142679
99163000,0.0324,0.013523,0.002678,0.000431,0.210140
99164000,0.0324,0.013523,0.002678,0.000431,0.369391
99165000,0.0324,0.013523,0.002678,0.000431,0.013163
99166000,0.0324,0.013523,0.002678,0.000431,0.014926
99167000,0.0324,0.013523,0.002678,0.000431,0.013281
99168000,0.0324,0.013523,0.002678,0.000431,0.013046
99169000,0.0324,0.013523,0.002678,0.000431,0.010930
99170000,0.0324,0.013523,0.002678,0.000431,0.011283
99171000,0.0324,0.013523,0.002678,0.000431,0.011048
99172000,0.0324,0.013523,0.002678,0.000431,0.009637
99173000,0.0324,0.013523,0.002678,0.000431,0.009637
99174000,0.0324,0.013523,0.002678,0.000431,0.010813
99175000,0.0324,0.013523,0.002678,0.000431,0.006817
99176000,0.0324,0.013523,0.002678,0.000431,0.005641
99177000,0.0324,0.013523,0.002678,0.000431,0.004349
99178000,0.0324,0.013523,0.002678,0.000431,0.004231
99179000,0.0324,0.013523,0.002678,0.000431,0.004819
99180000,0.0324,0.013523,0.002678,0.000431,0.004584
99181000,0.0324,0.013523,0.002678,0.000431,0.004231
99182000,0.0324,0.013523,0.002678,0.000431,0.002703
99183000,0.0324,0.013523,0.002678,0.000431,0.004701
99184000,0.0324,0.013523,0.002678,0.000431,0.001175
99185000,0.0324,0.013523,0.002678,0.000431,0.001293
99186000,0.0324,0.013523,0.002678,0.000431,0.014338
99187000,0.0324,0.013523,0.002678,0.000431,0.432856
99188000,0.0324,0.013523,0.002678,0.000431,0.589991
99189000,0.0324,0.013523,0.002678,0.000431,0.133982
99190000,0.0324,0.013523,0.002678,0.000431,0.130691
99191000,0.0324,0.013523,0.002678,0.000431,0.237877
99192000,0.0324,0.013523,0.002678,0.000431,0.522648
99193000,0.0324,0.013523,0.002678,0.000431,0.274076
99194000,0.0324,0.013523,0.002678,0.000431,0.241285
99195000,0.0324,0.013523,0.002678,0.000431,0.206732
99196000,0.0324,0.013523,0.002678,0.000431,0.138448
99197000,0.0324,0.013523,0.002678,0.000431,0.153962
99198000,0.0324,0.013523,0.002678,0.000431,0.098724
99199000,0.0324,0.013523,0.002678,0.000431,0.417695
99200000,0.0324,0.013523,0.002678,0.000431,0.136098
99201000,0.0324,0.013523,0.002678,0.000431,0.021625
99202000,0.0324,0.013523,0.002678,0.000431,0.018099
99203000,0.0324,0.013523,0.002678,0.000431,0.013398
99204000,0.0324,0.013523,0.002678,0.000431,0.012223
99205000,0.0324,0.013523,0.002678,0.000431,0.012340
99206000,0.0324,0.013523,0.002678,0.000431,0.011165
99207000,0.0324,0.013523,0.002678,0.000431,0.008697
99208000,0.0324,0.013523,0.002678,0.000431,0.008697
99209000,0.0324,0.013523,0.002678,0.000431,0.008932
99210000,0.0324,0.013523,0.002678,0.000431,0.009637
99211000,0.0324,0.013523,0.002678,0.000431,0.008109
99212000,0.0324,0.013523,0.002678,0.000431,0.007874
99213000,0.0324,0.013523,0.002678,0.000431,0.008697
99214000,0.0324,0.013523,0.002678,0.000431,0.006817
99215000,0.0324,0.013523,0.002678,0.000431,0.007052
99216000,0.0324,0.013523,0.002678,0.000431,0.009402
99217000,0.0324,0.013523,0.002678,0.000431,0.006111
99218000,0.0324,0.013523,0.002678,0.000431,0.006817
99219000,0.0324,0.013523,0.002678,0.000431,0.005406
99220000,0.0324,0.013523,0.002678,0.000431,0.005054
99221000,0.0324,0.013523,0.002678,0.000431,0.005289
99222000,0.0324,0.013523,0.002678,0.000431,0.004819
99223000,0.0324,0.013523,0.002678,0.000431,0.005641
99224000,0.0324,0.013523,0.002678,0.000431,0.004936
99225000,0.0324,0.013523,0.002678,0.000431,0.005171
99226000,0.0324,0.013523,0.002678,0.000431,0.005171
99227000,0.0324,0.013523,0.002678,0.000431,0.005289
99228000,0.0324,0.013523,0.002678,0.000431,0.005289
99229000,0.0324,0.013523,0.002678,0.000431,0.004936
99230000,0.0324,0.013523,0.002678,0.000431,0.005406
99231000,0.0324,0.013523,0.002678,0.000431,0.005171
99232000,0.0324,0.013523,0.002678,0.000431,0.005054
99233000,0.0324,0.013523,0.002678,0.000431,0.006817
99234000,0.0324,0.013523,0.002678,0.000431,0.004819
99235000,0.0324,0.013523,0.002678,0.000431,0.004466
99236000,0.0324,0.013523,0.002678,0.000431,0.002586
99237000,0.0324,0.013523,0.002678,0.000431,0.002586
99238000,0.0324,0.013523,0.002678,0.000431,0.002703
99239000,0.0324,0.013523,0.002678,0.000431,0.002468
99240000,0.0324,0.013523,0.002678,0.000431,0.002586
99241000,0.0324,0.013523,0.002678,0.000431,0.002586
99242000,0.0324,0.013523,0.002678,0.000431,0.002703
99243000,0.0324,0.013523,0.002678,0.000431,0.002468
99244000,0.0324,0.013523,0.002678,0.000431,0.002586
99245000,0.0324,0.013523,0.002678,0.000431,0.002703
99246000,0.0324,0.013523,0.002678,0.000431,0.002703
99247000,0.0324,0.013523,0.002678,0.000431,0.002233
99248000,0.0324,0.013523,0.002678,0.000431,0.002703
99249000,0.0324,0.013523,0.002678,0.000431,0.002821
99250000,0.0324,0.013523,0.002678,0.000431,0.002586
99251000,0.0324,0.013523,0.002678,0.000431,0.002468
99252000,0.0324,0.013523,0.002678,0.000431,0.002468
99253000,0.0324,0.013523,0.002678,0.000431,0.002821
99254000,0.0324,0.013523,0.002678,0.000431,0.002586
99255000,0.0324,0.013523,0.002678,0.000431,0.002351
99256000,0.0324,0.013523,0.002678,0.000431,0.002821
99257000,0.0324,0.013523,0.002678,0.000431,0.002468
99258000,0.0324,0.013523,0.002678,0.000431,0.002703
99259000,0.0324,0.013523,0.002678,0.000431,0.002468
99260000,0.0324,0.013523,0.002678,0.000431,0.002703
99261000,0.0324,0.013523,0.002678,0.000431,0.002703
99262000,0.0324,0.013523,0.002678,0.000431,0.002351
99263000,0.0324,0.013523,0.002678,0.000431,0.002703
99264000,0.0324,0.013523,0.002678,0.000431,0.002703
99265000,0.0324,0.013523,0.002678,0.000431,0.002703
99266000,0.0324,0.013523,0.002678,0.000431,0.002233
99267000,0.0324,0.013523,0.002678,0.000431,0.004231
99268000,0.0324,0.013523,0.002678,0.000431,0.001880
99269000,0.0324,0.013523,0.002678,0.000431,0.001763
99270000,0.0324,0.013523,0.002678,0.000431,0.001528
99271000,0.0324,0.013523,0.002678,0.000431,0.001880
99272000,0.0324,0.013523,0.002678,0.000431,0.001763
99273000,0.0324,0.013523,0.002678,0.000431,0.001763
99274000,0.0324,0.013523,0.002678,0.000431,0.001645
99275000,0.0324,0.013523,0.002678,0.000431,0.001880
99276000,0.0324,0.013523,0.002678,0.000431,0.001645
99277000,0.0324,0.013523,0.002678,0.000431,0.001763
99278000,0.0324,0.013523,0.002678,0.000431,0.001763
99279000,0.0324,0.013523,0.002678,0.000431,0.001880
99280000,0.0324,0.013523,0.002678,0.000431,0.001645
99281000,0.0324,0.013523,0.002678,0.000431,0.001645
99282000,0.0324,0.013523,0.002678,0.000431,0.001880
99283000,0.0324,0.013523,0.002678,0.000431,0.001880
99284000,0.0324,0.013523,0.002678,0.000431,0.001645
99285000,0.0324,0.013523,0.002678,0.000431,0.001645
99286000,0.0324,0.013523,0.002678,0.000431,0.001880
99287000,0.0324,0.013523,0.002678,0.000431,0.001880
99288000,0.0324,0.013523,0.002678,0.000431,0.001528
99289000,0.0324,0.013523,0.002678,0.000431,0.001763
99290000,0.0324,0.013523,0.002678,0.000431,0.001880
99291000,0.0324,0.013523,0.002678,0.000431,0.001763
99292000,0.0324,0.013523,0.002678,0.000431,0.001763
99293000,0.0324,0.013523,0.002678,0.000431,0.001645
99294000,0.0324,0.013523,0.002678,0.000431,0.001880
99295000,0.0324,0.013523,0.002678,0.000431,0.001645
99296000,0.0324,0.013523,0.002678,0.000431,0.001763
99297000,0.0324,0.013523,0.002678,0.000431,0.001763
99298000,0.0324,0.013523,0.002678,0.000431,0.001880
99299000,0.0324,0.013523,0.002678,0.000431,0.001645
99300000,0.0324,0.013523,0.002678,0.000431,0.001645
99301000,0.0324,0.013523,0.002678,0.000431,0.001880
99302000,0.0324,0.013523,0.002678,0.000431,0.001880
99303000,0.0324,0.013523,0.002678,0.000431,0.001528
99304000,0.0324,0.013523,0.002678,0.000431,0.001763
99305000,0.0324,0.013523,0.002678,0.000431,0.001880
99306000,0.0324,0.013523,0.002678,0.000431,0.001880
99307000,0.0324,0.013523,0.002678,0.000431,0.001410
99308000,0.0324,0.013523,0.002678,0.000431,0.001880
99309000,0.0324,0.013523,0.002678,0.000431,0.001880
99310000,0.0324,0.013523,0.002678,0.000431,0.001763
99311000,0.0324,0.013523,0.002678,0.000431,0.001645
99312000,0.0324,0.013523,0.002678,0.000431,0.001763
99313000,0.0324,0.013523,0.002678,0.000431,0.001880
99314000,0.0324,0.013523,0.002678,0.000431,0.001645
99315000,0.0324,0.013523,0.002678,0.000431,0.001645
99316000,0.0324,0.013523,0.002678,0.000431,0.001880
99317000,0.0324,0.013523,0.002678,0.000431,0.001763
99318000,0.0324,0.013523,0.002678,0.000431,0.001645
99319000,0.0324,0.013523,0.002678,0.000431,0.001763
99320000,0.0324,0.013523,0.002678,0.000431,0.001880
99321000,0.0324,0.013523,0.002678,0.000431,0.001763
99322000,0.0324,0.013523,0.002678,0.000431,0.001528
99323000,0.0324,0.013523,0.002678,0.000431,0.001880
99324000,0.0324,0.013523,0.002678,0.000431,0.001880
99325000,0.0324,0.013523,0.002678,0.000431,0.001763
99326000,0.0324,0.013523,0.002678,0.000431,0.001528
99327000,0.0324,0.013523,0.002678,0.000431,0.001880
99328000,0.0324,0.013523,0.002678,0.000431,0.001880
99329000,0.0324,0.013523,0.002678,0.000431,0.001645
99330000,0.0324,0.013523,0.002678,0.000431,0.002821
99331000,0.0324,0.013523,0.002678,0.000431,0.000823
99332000,0.0324,0.013523,0.002678,0.000431,0.000940
99333000,0.0324,0.013523,0.002678,0.000431,0.000940
99334000,0.0324,0.013523,0.002678,0.000431,0.002351
99335000,0.0324,0.013523,0.002678,0.000431,0.335543
99336000,0.0324,0.013523,0.002678,0.000431,0.675905
99337000,0.0324,0.013523,0.002678,0.000431,0.134570
99338000,0.0324,0.013523,0.002678,0.000431,0.134687
99339000,0.0324,0.013523,0.002678,0.000431,0.130691
99340000,0.0324,0.013523,0.002678,0.000431,0.601157
99341000,0.0324,0.013523,0.002678,0.000431,0.221188
99342000,0.0324,0.013523,0.002678,0.000431,0.289824
99343000,0.0324,0.013523,0.002678,0.000431,0.234821
99344000,0.0324,0.013523,0.002678,0.000431,0.134217
99345000,0.0324,0.013523,0.002678,0.000431,0.147615
99346000,0.0324,0.013523,0.002678,0.000431,0.120231
99347000,0.0324,0.013523,0.002678,0.000431,0.296759
99348000,0.0324,0.013523,0.002678,0.000431,0.316974
99349000,0.0324,0.013523,0.002678,0.000431,0.067109
99350000,0.0324,0.013523,0.002678,0.000431,0.055121
99351000,0.0324,0.013523,0.002678,0.000431,0.052065
99352000,0.0324,0.013523,0.002678,0.000431,0.045013
99353000,0.0324,0.013523,0.002678,0.000431,0.040312
99354000,0.0324,0.013523,0.002678,0.000431,0.036551
99355000,0.0324,0.013523,0.002678,0.000431,0.031027
99356000,0.0324,0.013523,0.002678,0.000431,0.026679
99357000,0.0324,0.013523,0.002678,0.000431,0.021155
99358000,0.0324,0.013523,0.002678,0.000431,0.023623
99359000,0.0324,0.013523,0.002678,0.000431,0.019040
99360000,0.0324,0.013523,0.002678,0.000431,0.018805
99361000,0.0324,0.013523,0.002678,0.000431,0.019040
99362000,0.0324,0.013523,0.002678,0.000431,0.016101
99363000,0.0324,0.013523,0.002678,0.000431,0.015396
99364000,0.0324,0.013523,0.002678,0.000431,0.014926
99365000,0.0324,0.013523,0.002678,0.000431,0.015749
99366000,0.0324,0.013523,0.002678,0.000431,0.017747
99367000,0.0324,0.013523,0.002678,0.000431,0.014103
99368000,0.0324,0.013523,0.002678,0.000431,0.013046
99369000,0.0324,0.013523,0.002678,0.000431,0.011400
99370000,0.0324,0.013523,0.002678,0.000431,0.011870
99371000,0.0324,0.013523,0.002678,0.000431,0.011400
99372000,0.0324,0.013523,0.002678,0.000431,0.011165
99373000,0.0324,0.013523,0.002678,0.000431,0.011870
99374000,0.0324,0.013523,0.002678,0.000431,0.010930
99375000,0.0324,0.013523,0.002678,0.000431,0.011635
99376000,0.0324,0.013523,0.002678,0.000431,0.011870
99377000,0.0324,0.013523,0.002678,0.000431,0.011283
99378000,0.0324,0.013523,0.002678,0.000431,0.012693
99379000,0.0324,0.013523,0.002678,0.000431,0.010460
99380000,0.0324,0.013523,0.002678,0.000431,0.010930
99381000,0.0324,0.013523,0.002678,0.000431,0.010813
99382000,0.0324,0.013523,0.002678,0.000431,0.014456
99383000,0.0324,0.013523,0.002678,0.000431,0.007874
99384000,0.0324,0.013523,0.002678,0.000431,0.008462
99385000,0.0324,0.013523,0.002678,0.000431,0.008109
99386000,0.0324,0.013523,0.002678,0.000431,0.008462
99387000,0.0324,0.013523,0.002678,0.000431,0.008345
99388000,0.0324,0.013523,0.002678,0.000431,0.007992
99389000,0.0324,0.013523,0.002678,0.000431,0.008580
99390000,0.0324,0.013523,0.002678,0.000431,0.008227
99391000,0.0324,0.013523,0.002678,0.000431,0.010460
99392000,0.0324,0.013523,0.002678,0.000431,0.007404
99393000,0.0324,0.013523,0.002678,0.000431,0.007287
99394000,0.0324,0.013523,0.002678,0.000431,0.007639
99395000,0.0324,0.013523,0.002678,0.000431,0.006934
99396000,0.0324,0.013523,0.002678,0.000431,0.007757
99397000,0.0324,0.013523,0.002678,0.000431,0.006934
99398000,0.0324,0.013523,0.002678,0.000431,0.009402
99399000,0.0324,0.013523,0.002678,0.000431,0.007404
99400000,0.0324,0.013523,0.002678,0.000431,0.004701
99401000,0.0324,0.013523,0.002678,0.000431,0.005054
99402000,0.0324,0.013523,0.002678,0.000431,0.004936
99403000,0.0324,0.013523,0.002678,0.000431,0.005054
99404000,0.0324,0.013523,0.002678,0.000431,0.004819
99405000,0.0324,0.013523,0.002678,0.000431,0.004936
99406000,0.0324,0.013523,0.002678,0.000431,0.004936
99407000,0.0324,0.013523,0.002678,0.000431,0.005054
99408000,0.0324,0.013523,0.002678,0.000431,0.004819
99409000,0.0324,0.013523,0.002678,0.000431,0.005054
99410000,0.0324,0.013523,0.002678,0.000431,0.005054
99411000,0.0324,0.013523,0.002678,0.000431,0.005054
99412000,0.0324,0.013523,0.002678,0.000431,0.004466
99413000,0.0324,0.013523,0.002678,0.000431,0.005406
99414000,0.0324,0.013523,0.002678,0.000431,0.004936
99415000,0.0324,0.013523,0.002678,0.000431,0.004819
99416000,0.0324,0.013523,0.002678,0.000431,0.004936
99417000,0.0324,0.013523,0.002678,0.000431,0.005054
99418000,0.0324,0.013523,0.002678,0.000431,0.004936
99419000,0.0324,0.013523,0.002678,0.000431,0.004819
99420000,0.0324,0.013523,0.002678,0.000431,0.005054
99421000,0.0324,0.013523,0.002678,0.000431,0.005054
99422000,0.0324,0.013523,0.002678,0.000431,0.004819
99423000,0.0324,0.013523,0.002678,0.000431,0.006934
99424000,0.0324,0.013523,0.002678,0.000431,0.003408
99425000,0.0324,0.013523,0.002678,0.000431,0.004231
99426000,0.0324,0.013523,0.002678,0.000431,0.003761
99427000,0.0324,0.013523,0.002678,0.000431,0.002351
99428000,0.0324,0.013523,0.002678,0.000431,0.002586
99429000,0.0324,0.013523,0.002678,0.000431,0.002703
99430000,0.0324,0.013523,0.002678,0.000431,0.002468
99431000,0.0324,0.013523,0.002678,0.000431,0.002468
99432000,0.0324,0.013523,0.002678,0.000431,0.003526
99433000,0.0324,0.013523,0.002678,0.000431,0.002938
99434000,0.0324,0.013523,0.002678,0.000431,0.001763
99435000,0.0324,0.013523,0.002678,0.000431,0.001528
99436000,0.0324,0.013523,0.002678,0.000431,0.001763
99437000,0.0324,0.013523,0.002678,0.000431,0.001528
99438000,0.0324,0.013523,0.002678,0.000431,0.001880
99439000,0.0324,0.013523,0.002678,0.000431,0.001645
99440000,0.0324,0.013523,0.002678,0.000431,0.001645
99441000,0.0324,0.013523,0.002678,0.000431,0.001763
99442000,0.0324,0.013523,0.002678,0.000431,0.001528
99443000,0.0324,0.013523,0.002678,0.000431,0.001763
99444000,0.0324,0.013523,0.002678,0.000431,0.001645
99445000,0.0324,0.013523,0.002678,0.000431,0.001645
99446000,0.0324,0.013523,0.002678,0.000431,0.001645
99447000,0.0324,0.013523,0.002678,0.000431,0.001763
99448000,0.0324,0.013523,0.002678,0.000431,0.001763
99449000,0.0324,0.013523,0.002678,0.000431,0.001528
99450000,0.0324,0.013523,0.002678,0.000431,0.001880
99451000,0.0324,0.013523,0.002678,0.000431,0.002351
99452000,0.0324,0.013523,0.002678,0.000431,0.001998
99453000,0.0324,0.013523,0.002678,0.000431,0.000940
99454000,0.0324,0.013523,0.002678,0.000431,0.000705
99455000,0.0324,0.013523,0.002678,0.000431,0.000940
99456000,0.0324,0.013523,0.002678,0.000431,0.000823
99457000,0.0324,0.013523,0.002678,0.000431,0.000823
99458000,0.0324,0.013523,0.002678,0.000431,0.000823
99459000,0.0324,0.013523,0.002678,0.000431,0.000823
99460000,0.0324,0.013523,0.002678,0.000431,0.000940
99461000,0.0324,0.013523,0.002678,0.000431,0.000705
99462000,0.0324,0.013523,0.002678,0.000431,0.000940
99463000,0.0324,0.013523,0.002678,0.000431,0.000823
99464000,0.0324,0.013523,0.002678,0.000431,0.000823
99465000,0.0324,0.013523,0.002678,0.000431,0.000823
99466000,0.0324,0.013523,0.002678,0.000431,0.000823
99467000,0.0324,0.013523,0.002678,0.000431,0.000823
99468000,0.0324,0.013523,0.002678,0.000431,0.000823
99469000,0.0324,0.013523,0.002678,0.000431,0.000940
99470000,0.0324,0.013523,0.002678,0.000431,0.000705
99471000,0.0324,0.013523,0.002678,0.000431,0.000940
99472000,0.0324,0.013523,0.002678,0.000431,0.000705
99473000,0.0324,0.013523,0.002678,0.000431,0.000940
99474000,0.0324,0.013523,0.002678,0.000431,0.000940
99475000,0.0324,0.013523,0.002678,0.000431,0.000705
99476000,0.0324,0.013523,0.002678,0.000431,0.000940
99477000,0.0324,0.013523,0.002678,0.000431,0.000705
99478000,0.0324,0.013523,0.002678,0.000431,0.000940
99479000,0.0324,0.013523,0.002678,0.000431,0.000823
99480000,0.0324,0.013523,0.002678,0.000431,0.000823
99481000,0.0324,0.013523,0.002678,0.000431,0.000940
99482000,0.0324,0.013523,0.002678,0.000431,0.000705
99483000,0.0324,0.013523,0.002678,0.000431,0.000940
99484000,0.0324,0.013523,0.002678,0.000431,0.000823
99485000,0.0324,0.013523,0.002678,0.000431,0.000823
99486000,0.0324,0.013523,0.002678,0.000431,0.000823
99487000,0.0324,0.013523,0.002678,0.000431,0.000823
99488000,0.0324,0.013523,0.002678,0.000431,0.000823
99489000,0.0324,0.013523,0.002678,0.000431,0.000823
99490000,0.0324,0.013523,0.002678,0.000431,0.000940
99491000,0.0324,0.013523,0.002678,0.000431,0.000823
99492000,0.0324,0.013523,0.002678,0.000431,0.000823
99493000,0.0324,0.013523,0.002678,0.000431,0.000823
99494000,0.0324,0.013523,0.002678,0.000431,0.000823
99495000,0.0324,0.013523,0.002678,0.000431,0.000823
99496000,0.0324,0.013523,0.002678,0.000431,0.000823
99497000,0.0324,0.013523,0.002678,0.000431,0.000823
99498000,0.0324,0.013523,0.002678,0.000431,0.000823
99499000,0.0324,0.013523,0.002678,0.000431,0.000940
99500000,0.0324,0.013523,0.002678,0.000431,0.000823
99501000,0.0324,0.013523,0.002678,0.000431,0.000823
99502000,0.0324,0.013523,0.002678,0.000431,0.000705
99503000,0.0324,0.013523,0.002678,0.000431,0.000940
99504000,0.0324,0.013523,0.002678,0.000431,0.000940
99505000,0.0324,0.013523,0.002678,0.000431,0.000705
99506000,0.0324,0.013523,0.002678,0.000431,0.000940
99507000,0.0324,0.013523,0.002678,0.000431,0.000705
99508000,0.0324,0.013523,0.002678,0.000431,0.000940
99509000,0.0324,0.013523,0.002678,0.000431,0.000823
99510000,0.0324,0.013523,0.002678,0.000431,0.000823
99511000,0.0324,0.013523,0.002678,0.000431,0.000940
99512000,0.0324,0.013523,0.002678,0.000431,0.000705
99513000,0.0324,0.013523,0.002678,0.000431,0.000940
99514000,0.0324,0.013523,0.002678,0.000431,0.000823
99515000,0.0324,0.013523,0.002678,0.000431,0.000823
99516000,0.0324,0.013523,0.002678,0.000431,0.000823
99517000,0.0324,0.013523,0.002678,0.000431,0.000823
99518000,0.0324,0.013523,0.002678,0.000431,0.000823
99519000,0.0324,0.013523,0.002678,0.000431,0.000823
99520000,0.0324,0.013523,0.002678,0.000431,0.000940
99521000,0.0324,0.013523,0.002678,0.000431,0.000705
99522000,0.0324,0.013523,0.002678,0.000431,0.000940
99523000,0.0324,0.013523,0.002678,0.000431,0.000823
99524000,0.0324,0.013523,0.002678,0.000431,0.000823
99525000,0.0324,0.013523,0.002678,0.000431,0.000705
99526000,0.0324,0.013523,0.002678,0.000431,0.000940
99527000,0.0324,0.013523,0.002678,0.000431,0.000940
99528000,0.0324,0.013523,0.002678,0.000431,0.000705
99529000,0.0324,0.013523,0.002678,0.000431,0.000940
99530000,0.0324,0.013523,0.002678,0.000431,0.000705
99531000,0.0324,0.013523,0.002678,0.000431,0.000940
99532000,0.0324,0.013523,0.002678,0.000431,0.000823
99533000,0.0324,0.013523,0.002678,0.000431,0.000823
99534000,0.0324,0.013523,0.002678,0.000431,0.000940
99535000,0.0324,0.013523,0.002678,0.000431,0.000705
99536000,0.0324,0.013523,0.002678,0.000431,0.000940
99537000,0.0324,0.013523,0.002678,0.000431,0.000823
99538000,0.0324,0.013523,0.002678,0.000431,0.000823
99539000,0.0324,0.013523,0.002678,0.000431,0.000823
99540000,0.0324,0.013523,0.002678,0.000431,0.000823
99541000,0.0324,0.013523,0.002678,0.000431,0.000823
99542000,0.0324,0.013523,0.002678,0.000431,0.000823
99543000,0.0324,0.013523,0.002678,0.000431,0.000940
99544000,0.0324,0.013523,0.002678,0.000431,0.000705
99545000,0.0324,0.013523,0.002678,0.000431,0.000823
99546000,0.0324,0.013523,0.002678,0.000431,0.000940
99547000,0.0324,0.013523,0.002678,0.000431,0.000823
99548000,0.0324,0.013523,0.002678,0.000431,0.000823
99549000,0.0324,0.013523,0.002678,0.000431,0.000823
99550000,0.0324,0.013523,0.002678,0.000431,0.000705
99551000,0.0324,0.013523,0.002678,0.000431,0.000940
99552000,0.0324,0.013523,0.002678,0.000431,0.000940
99553000,0.0324,0.013523,0.002678,0.000431,0.000823
99554000,0.0324,0.013523,0.002678,0.000431,0.000823
99555000,0.0324,0.013523,0.002678,0.000431,0.000705
99556000,0.0324,0.013523,0.002678,0.000431,0.000940
99557000,0.0324,0.013523,0.002678,0.000431,0.000940
99558000,0.0324,0.013523,0.002678,0.000431,0.000705
99559000,0.0324,0.013523,0.002678,0.000431,0.000940
99560000,0.0324,0.013523,0.002678,0.000431,0.000705
99561000,0.0324,0.013523,0.002678,0.000431,0.000940
99562000,0.0324,0.013523,0.002678,0.000431,0.000823
99563000,0.0324,0.013523,0.002678,0.000431,0.000823
99564000,0.0324,0.013523,0.002678,0.000431,0.000823
99565000,0.0324,0.013523,0.002678,0.000431,0.000823
99566000,0.0324,0.013523,0.002678,0.000431,0.000940
99567000,0.0324,0.013523,0.002678,0.000431,0.000705
99568000,0.0324,0.013523,0.002678,0.000431,0.000940
99569000,0.0324,0.013523,0.002678,0.000431,0.000823
99570000,0.0324,0.013523,0.002678,0.000431,0.000823
99571000,0.0324,0.013523,0.002678,0.000431,0.000823
99572000,0.0324,0.013523,0.002678,0.000431,0.000823
99573000,0.0324,0.013523,0.002678,0.000431,0.000940
99574000,0.0324,0.013523,0.002678,0.000431,0.000705
99575000,0.0324,0.013523,0.002678,0.000431,0.000940
99576000,0.0324,0.013523,0.002678,0.000431,0.000705
99577000,0.0324,0.013523,0.002678,0.000431,0.000940
99578000,0.0324,0.013523,0.002678,0.000431,0.000705
99579000,0.0324,0.013523,0.002678,0.000431,0.000940
99580000,0.0324,0.013523,0.002678,0.000431,0.000940
99581000,0.0324,0.013523,0.002678,0.000431,0.000705
99582000,0.0324,0.013523,0.002678,0.000431,0.000940
99583000,0.0324,0.013523,0.002678,0.000431,0.000705
99584000,0.0324,0.013523,0.002678,0.000431,0.000940
99585000,0.0324,0.013523,0.002678,0.000431,0.000823
99586000,0.0324,0.013523,0.002678,0.000431,0.000823
99587000,0.0324,0.013523,0.002678,0.000431,0.000940
99588000,0.0324,0.013523,0.002678,0.000431,0.000705
99589000,0.0324,0.013523,0.002678,0.000431,0.000940
99590000,0.0324,0.013523,0.002678,0.000431,0.000823
99591000,0.0324,0.013523,0.002678,0.000431,0.000823
99592000,0.0324,0.013523,0.002678,0.000431,0.000823
99593000,0.0324,0.013523,0.002678,0.000431,0.000823
99594000,0.0324,0.013523,0.002678,0.000431,0.000823
99595000,0.0324,0.013523,0.002678,0.000431,0.000823
99596000,0.0324,0.013523,0.002678,0.000431,0.000940
99597000,0.0324,0.013523,0.002678,0.000431,0.000705
99598000,0.0324,0.013523,0.002678,0.000431,0.000823
99599000,0.0324,0.013523,0.002678,0.000431,0.000823
99600000,0.0324,0.013523,0.002678,0.000431,0.000940
99601000,0.0324,0.013523,0.002678,0.000431,0.000823
99602000,0.0324,0.013523,0.002678,0.000431,0.000823
99603000,0.0324,0.013523,0.002678,0.000431,0.000705
99604000,0.0324,0.013523,0.002678,0.000431,0.000940
99605000,0.0324,0.013523,0.002678,0.000431,0.000940
99606000,0.0324,0.013523,0.002678,0.000431,0.000705
99607000,0.0324,0.013523,0.002678,0.000431,0.000940
99608000,0.0324,0.013523,0.002678,0.000431,0.000705
99609000,0.0324,0.013523,0.002678,0.000431,0.000940
99610000,0.0324,0.013523,0.002678,0.000431,0.000823
99611000,0.0324,0.013523,0.002678,0.000431,0.000823
99612000,0.0324,0.013523,0.002678,0.000431,0.000940
99613000,0.0324,0.013523,0.002678,0.000431,0.000705
99614000,0.0324,0.013523,0.002678,0.000431,0.000940
99615000,0.0324,0.013523,0.002678,0.000431,0.000823
99616000,0.0324,0.013523,0.002678,0.000431,0.000823
99617000,0.0324,0.013523,0.002678,0.000431,0.000823
99618000,0.0324,0.013523,0.002678,0.000431,0.000823
99619000,0.0324,0.013523,0.002678,0.000431,0.000823
99620000,0.0324,0.013523,0.002678,0.000431,0.000823
99621000,0.0324,0.013523,0.002678,0.000431,0.000940
99622000,0.0324,0.013523,0.002678,0.000431,0.000823
99623000,0.0324,0.013523,0.002678,0.000431,0.000823
99624000,0.0324,0.013523,0.002678,0.000431,0.000823
99625000,0.0324,0.013523,0.002678,0.000431,0.000823
99626000,0.0324,0.013523,0.002678,0.000431,0.000705
99627000,0.0324,0.013523,0.002678,0.000431,0.000940
99628000,0.0324,0.013523,0.002678,0.000431,0.000940
99629000,0.0324,0.013523,0.002678,0.000431,0.000705
99630000,0.0324,0.013523,0.002678,0.000431,0.000940
99631000,0.0324,0.013523,0.002678,0.000431,0.000705
99632000,0.0324,0.013523,0.002678,0.000431,0.000940
99633000,0.0324,0.013523,0.002678,0.000431,0.000940
99634000,0.0324,0.013523,0.002678,0.000431,0.000705
99635000,0.0324,0.013523,0.002678,0.000431,0.000940
99636000,0.0324,0.013523,0.002678,0.000431,0.000705
99637000,0.0324,0.013523,0.002678,0.000431,0.000940
99638000,0.0324,0.013523,0.002678,0.000431,0.000823
99639000,0.0324,0.013523,0.002678,0.000431,0.000823
99640000,0.0324,0.013523,0.002678,0.000431,0.000823
99641000,0.0324,0.013523,0.002678,0.000431,0.000823
99642000,0.0324,0.013523,0.002678,0.000431,0.000940
99643000,0.0324,0.013523,0.002678,0.000431,0.000705
99644000,0.0324,0.013523,0.002678,0.000431,0.000940
99645000,0.0324,0.013523,0.002678,0.000431,0.000823
99646000,0.0324,0.013523,0.002678,0.000431,0.000705
99647000,0.0324,0.013523,0.002678,0.000431,0.000940
99648000,0.0324,0.013523,0.002678,0.000431,0.000823
99649000,0.0324,0.013523,0.002678,0.000431,0.000705
99650000,0.0324,0.013523,0.002678,0.000431,0.000940
99651000,0.0324,0.013523,0.002678,0.000431,0.000823
99652000,0.0324,0.013523,0.002678,0.000431,0.000823
99653000,0.0324,0.013523,0.002678,0.000431,0.000705
99654000,0.0324,0.013523,0.002678,0.000431,0.000940
99655000,0.0324,0.013523,0.002678,0.000431,0.000823
99656000,0.0324,0.013523,0.002678,0.000431,0.000823
99657000,0.0324,0.013523,0.002678,0.000431,0.011753
99658000,0.0324,0.013523,0.002678,0.000431,0.481630
99659000,0.0324,0.013523,0.002678,0.000431,0.616318
99660000,0.0324,0.013523,0.002678,0.000431,0.137390
99661000,0.0324,0.013523,0.002678,0.000431,0.132102
99662000,0.0324,0.013523,0.002678,0.000431,0.258327
99663000,0.0324,0.013523,0.002678,0.000431,0.532168
99664000,0.0324,0.013523,0.002678,0.000431,0.257739
99665000,0.0324,0.013523,0.002678,0.000431,0.309922
99666000,0.0324,0.013523,0.002678,0.000431,0.185342
99667000,0.0324,0.013523,0.002678,0.000431,0.142209
99668000,0.0324,0.013523,0.002678,0.000431,0.127165
99669000,0.0324,0.013523,0.002678,0.000431,0.265731
99670000,0.0324,0.013523,0.002678,0.000431,0.326258
99671000,0.0324,0.013523,0.002678,0.000431,0.030205
99672000,0.0324,0.013523,0.002678,0.000431,0.025386
99673000,0.0324,0.013523,0.002678,0.000431,0.019862
99674000,0.0324,0.013523,0.002678,0.000431,0.015749
99675000,0.0324,0.013523,0.002678,0.000431,0.016101
99676000,0.0324,0.013523,0.002678,0.000431,0.014573
99677000,0.0324,0.013523,0.002678,0.000431,0.013281
99678000,0.0324,0.013523,0.002678,0.000431,0.017394
99679000,0.0324,0.013523,0.002678,0.000431,0.013633
99680000,0.0324,0.013523,0.002678,0.000431,0.010107
99681000,0.0324,0.013523,0.002678,0.000431,0.009285
99682000,0.0324,0.013523,0.002678,0.000431,0.011048
99683000,0.0324,0.013523,0.002678,0.000431,0.008109
99684000,0.0324,0.013523,0.002678,0.000431,0.011753
99685000,0.0324,0.013523,0.002678,0.000431,0.006934
99686000,0.0324,0.013523,0.002678,0.000431,0.005171
99687000,0.0324,0.013523,0.002678,0.000431,0.005524
99688000,0.0324,0.013523,0.002678,0.000431,0.003996
99689000,0.0324,0.013523,0.002678,0.000431,0.002468
99690000,0.0324,0.013523,0.002678,0.000431,0.002703
99691000,0.0324,0.013523,0.002678,0.000431,0.002233
99692000,0.0324,0.013523,0.002678,0.000431,0.002821
99693000,0.0324,0.013523,0.002678,0.000431,0.003878
99694000,0.0324,0.013523,0.002678,0.000431,0.001880
99695000,0.0324,0.013523,0.002678,0.000431,0.001763
99696000,0.0324,0.013523,0.002678,0.000431,0.001763
99697000,0.0324,0.013523,0.002678,0.000431,0.001645
99698000,0.0324,0.013523,0.002678,0.000431,0.001645
99699000,0.0324,0.013523,0.002678,0.000431,0.001763
99700000,0.0324,0.013523,0.002678,0.000431,0.001763
99701000,0.0324,0.013523,0.002678,0.000431,0.001763
99702000,0.0324,0.013523,0.002678,0.000431,0.001763
99703000,0.0324,0.013523,0.002678,0.000431,0.002938
99704000,0.0324,0.013523,0.002678,0.000431,0.000940
99705000,0.0324,0.013523,0.002678,0.000431,0.000823
99706000,0.0324,0.013523,0.002678,0.000431,0.000823
99707000,0.0324,0.013523,0.002678,0.000431,0.000940
99708000,0.0324,0.013523,0.002678,0.000431,0.000940
99709000,0.0324,0.013523,0.002678,0.000431,0.000823
99710000,0.0324,0.013523,0.002678,0.000431,0.000823
99711000,0.0324,0.013523,0.002678,0.000431,0.000940
99712000,0.0324,0.013523,0.002678,0.000431,0.000823
99713000,0.0324,0.013523,0.002678,0.000431,0.000940
99714000,0.0324,0.013523,0.002678,0.000431,0.000823
99715000,0.0324,0.013523,0.002678,0.000431,0.000940
99716000,0.0324,0.013523,0.002678,0.000431,0.000823
99717000,0.0324,0.013523,0.002678,0.000431,0.000823
99718000,0.0324,0.013523,0.002678,0.000431,0.000940
99719000,0.0324,0.013523,0.002678,0.000431,0.000940
99720000,0.0324,0.013523,0.002678,0.000431,0.000823
99721000,0.0324,0.013523,0.002678,0.000431,0.078156
99722000,0.0324,0.013523,0.002678,0.000431,0.487389
99723000,0.0324,0.013523,0.002678,0.000431,0.542510
99724000,0.0324,0.013523,0.002678,0.000431,0.134805
99725000,0.0324,0.013523,0.002678,0.000431,0.132337
99726000,0.0324,0.013523,0.002678,0.000431,0.577769
99727000,0.0324,0.013523,0.002678,0.000431,0.232823
99728000,0.0324,0.013523,0.002678,0.000431,0.277484
99729000,0.0324,0.013523,0.002678,0.000431,0.300990
99730000,0.0324,0.013523,0.002678,0.000431,0.138213
99731000,0.0324,0.013523,0.002678,0.000431,0.148908
99732000,0.0324,0.013523,0.002678,0.000431,0.115765
99733000,0.0324,0.013523,0.002678,0.000431,0.308864
99734000,0.0324,0.013523,0.002678,0.000431,0.278307
99735000,0.0324,0.013523,0.002678,0.000431,0.025974
99736000,0.0324,0.013523,0.002678,0.000431,0.023036
99737000,0.0324,0.013523,0.002678,0.000431,0.021978
99738000,0.0324,0.013523,0.002678,0.000431,0.016689
99739000,0.0324,0.013523,0.002678,0.000431,0.018569
99740000,0.0324,0.013523,0.002678,0.000431,0.016219
99741000,0.0324,0.013523,0.002678,0.000431,0.013868
99742000,0.0324,0.013523,0.002678,0.000431,0.013046
99743000,0.0324,0.013523,0.002678,0.000431,0.014221
99744000,0.0324,0.013523,0.002678,0.000431,0.012576
99745000,0.0324,0.013523,0.002678,0.000431,0.012928
99746000,0.0324,0.013523,0.002678,0.000431,0.012693
99747000,0.0324,0.013523,0.002678,0.000431,0.013868
99748000,0.0324,0.013523,0.002678,0.000431,0.012105
99749000,0.0324,0.013523,0.002678,0.000431,0.012340
99750000,0.0324,0.013523,0.002678,0.000431,0.011400
99751000,0.0324,0.013523,0.002678,0.000431,0.011283
99752000,0.0324,0.013523,0.002678,0.000431,0.009167
99753000,0.0324,0.013523,0.002678,0.000431,0.009167
99754000,0.0324,0.013523,0.002678,0.000431,0.010342
99755000,0.0324,0.013523,0.002678,0.000431,0.009402
99756000,0.0324,0.013523,0.002678,0.000431,0.007992
99757000,0.0324,0.013523,0.002678,0.000431,0.008109
99758000,0.0324,0.013523,0.002678,0.000431,0.008227
99759000,0.0324,0.013523,0.002678,0.000431,0.007992
99760000,0.0324,0.013523,0.002678,0.000431,0.006699
99761000,0.0324,0.013523,0.002678,0.000431,0.007874
99762000,0.0324,0.013523,0.002678,0.000431,0.006934
99763000,0.0324,0.013523,0.002678,0.000431,0.005876
99764000,0.0324,0.013523,0.002678,0.000431,0.006817
99765000,0.0324,0.013523,0.002678,0.000431,0.005406
99766000,0.0324,0.013523,0.002678,0.000431,0.004936
99767000,0.0324,0.013523,0.002678,0.000431,0.007169
99768000,0.0324,0.013523,0.002678,0.000431,0.003643
99769000,0.0324,0.013523,0.002678,0.000431,0.003291
99770000,0.0324,0.013523,0.002678,0.000431,0.003526
99771000,0.0324,0.013523,0.002678,0.000431,0.003173
99772000,0.0324,0.013523,0.002678,0.000431,0.003643
99773000,0.0324,0.013523,0.002678,0.000431,0.003291
99774000,0.0324,0.013523,0.002678,0.000431,0.003526
99775000,0.0324,0.013523,0.002678,0.000431,0.003173
99776000,0.0324,0.013523,0.002678,0.000431,0.003408
99777000,0.0324,0.013523,0.002678,0.000431,0.003761
99778000,0.0324,0.013523,0.002678,0.000431,0.003056
99779000,0.0324,0.013523,0.002678,0.000431,0.003526
99780000,0.0324,0.013523,0.002678,0.000431,0.003173
99781000,0.0324,0.013523,0.002678,0.000431,0.003643
99782000,0.0324,0.013523,0.002678,0.000431,0.003526
99783000,0.0324,0.013523,0.002678,0.000431,0.003291
99784000,0.0324,0.013523,0.002678,0.000431,0.003291
99785000,0.0324,0.013523,0.002678,0.000431,0.003526
99786000,0.0324,0.013523,0.002678,0.000431,0.003526
99787000,0.0324,0.013523,0.002678,0.000431,0.003173
99788000,0.0324,0.013523,0.002678,0.000431,0.007052
99789000,0.0324,0.013523,0.002678,0.000431,0.002703
99790000,0.0324,0.013523,0.002678,0.000431,0.000940
99791000,0.0324,0.013523,0.002678,0.000431,0.000823
99792000,0.0324,0.013523,0.002678,0.000431,0.000940
99793000,0.0324,0.013523,0.002678,0.000431,0.000823
99794000,0.0324,0.013523,0.002678,0.000431,0.000823
99795000,0.0324,0.013523,0.002678,0.000431,0.000940
99796000,0.0324,0.013523,0.002678,0.000431,0.000940
99797000,0.0324,0.013523,0.002678,0.000431,0.000823
99798000,0.0324,0.013523,0.002678,0.000431,0.000823
99799000,0.0324,0.013523,0.002678,0.000431,0.000940
99800000,0.0324,0.013523,0.002678,0.000431,0.000940
99801000,0.0324,0.013523,0.002678,0.000431,0.000705
99802000,0.0324,0.013523,0.002678,0.000431,0.000940
99803000,0.0324,0.013523,0.002678,0.000431,0.000940
99804000,0.0324,0.013523,0.002678,0.000431,0.000940
99805000,0.0324,0.013523,0.002678,0.000431,0.000705
99806000,0.0324,0.013523,0.002678,0.000431,0.000940
99807000,0.0324,0.013523,0.002678,0.000431,0.000940
99808000,0.0324,0.013523,0.002678,0.000431,0.000823
99809000,0.0324,0.013523,0.002678,0.000431,0.000823
99810000,0.0324,0.013523,0.002678,0.000431,0.000940
99811000,0.0324,0.013523,0.002678,0.000431,0.000940
99812000,0.0324,0.013523,0.002678,0.000431,0.000940
99813000,0.0324,0.013523,0.002678,0.000431,0.000940
99814000,0.0324,0.013523,0.002678,0.000431,0.000940
99815000,0.0324,0.013523,0.002678,0.000431,0.000823
99816000,0.0324,0.013523,0.002678,0.000431,0.000823
99817000,0.0324,0.013523,0.002678,0.000431,0.187575
99818000,0.0324,0.013523,0.002678,0.000431,0.438380
99819000,0.0324,0.013523,0.002678,0.000431,0.490798
99820000,0.0324,0.013523,0.002678,0.000431,0.133042
99821000,0.0324,0.013523,0.002678,0.000431,0.131632
99822000,0.0324,0.013523,0.002678,0.000431,0.547916
99823000,0.0324,0.013523,0.002678,0.000431,0.248337
99824000,0.0324,0.013523,0.002678,0.000431,0.222363
99825000,0.0324,0.013523,0.002678,0.000431,0.308159
99826000,0.0324,0.013523,0.002678,0.000431,0.135510
99827000,0.0324,0.013523,0.002678,0.000431,0.144325
99828000,0.0324,0.013523,0.002678,0.000431,0.165715
99829000,0.0324,0.013523,0.002678,0.000431,0.132102
99830000,0.0324,0.013523,0.002678,0.000431,0.467997
99831000,0.0324,0.013523,0.002678,0.000431,0.094023
99832000,0.0324,0.013523,0.002678,0.000431,0.078979
99833000,0.0324,0.013523,0.002678,0.000431,0.070634
99834000,0.0324,0.013523,0.002678,0.000431,0.069107
99835000,0.0324,0.013523,0.002678,0.000431,0.057941
99836000,0.0324,0.013523,0.002678,0.000431,0.056884
99837000,0.0324,0.013523,0.002678,0.000431,0.046189
99838000,0.0324,0.013523,0.002678,0.000431,0.044778
99839000,0.0324,0.013523,0.002678,0.000431,0.037139
99840000,0.0324,0.013523,0.002678,0.000431,0.034318
99841000,0.0324,0.013523,0.002678,0.000431,0.027972
99842000,0.0324,0.013523,0.002678,0.000431,0.025504
99843000,0.0324,0.013523,0.002678,0.000431,0.021860
99844000,0.0324,0.013523,0.002678,0.000431,0.022918
99845000,0.0324,0.013523,0.002678,0.000431,0.019275
99846000,0.0324,0.013523,0.002678,0.000431,0.019627
99847000,0.0324,0.013523,0.002678,0.000431,0.019510
99848000,0.0324,0.013523,0.002678,0.000431,0.018569
99849000,0.0324,0.013523,0.002678,0.000431,0.016571
99850000,0.0324,0.013523,0.002678,0.000431,0.017277
99851000,0.0324,0.013523,0.002678,0.000431,0.014573
99852000,0.0324,0.013523,0.002678,0.000431,0.013046
99853000,0.0324,0.013523,0.002678,0.000431,0.012576
99854000,0.0324,0.013523,0.002678,0.000431,0.013868
99855000,0.0324,0.013523,0.002678,0.000431,0.014456
99856000,0.0324,0.013523,0.002678,0.000431,0.011400
99857000,0.0324,0.013523,0.002678,0.000431,0.012693
99858000,0.0324,0.013523,0.002678,0.000431,0.008932
99859000,0.0324,0.013523,0.002678,0.000431,0.007757
99860000,0.0324,0.013523,0.002678,0.000431,0.010578
99861000,0.0324,0.013523,0.002678,0.000431,0.008345
99862000,0.0324,0.013523,0.002678,0.000431,0.006347
99863000,0.0324,0.013523,0.002678,0.000431,0.005406
99864000,0.0324,0.013523,0.002678,0.000431,0.003408
99865000,0.0324,0.013523,0.002678,0.000431,0.003056
99866000,0.0324,0.013523,0.002678,0.000431,0.003761
99867000,0.0324,0.013523,0.002678,0.000431,0.003056
99868000,0.0324,0.013523,0.002678,0.000431,0.004819
99869000,0.0324,0.013523,0.002678,0.000431,0.002586
99870000,0.0324,0.013523,0.002678,0.000431,0.002233
99871000,0.0324,0.013523,0.002678,0.000431,0.002703
99872000,0.0324,0.013523,0.002678,0.000431,0.002233
99873000,0.0324,0.013523,0.002678,0.000431,0.002468
99874000,0.0324,0.013523,0.002678,0.000431,0.002586
99875000,0.0324,0.013523,0.002678,0.000431,0.004701
99876000,0.0324,0.013523,0.002678,0.000431,0.001528
99877000,0.0324,0.013523,0.002678,0.000431,0.001645
99878000,0.0324,0.013523,0.002678,0.000431,0.001410
99879000,0.0324,0.013523,0.002678,0.000431,0.001645
99880000,0.0324,0.013523,0.002678,0.000431,0.001645
99881000,0.0324,0.013523,0.002678,0.000431,0.001410
99882000,0.0324,0.013523,0.002678,0.000431,0.001880
99883000,0.0324,0.013523,0.002678,0.000431,0.001410
99884000,0.0324,0.013523,0.002678,0.000431,0.001645
99885000,0.0324,0.013523,0.002678,0.000431,0.001410
99886000,0.0324,0.013523,0.002678,0.000431,0.001645
99887000,0.0324,0.013523,0.002678,0.000431,0.001880
99888000,0.0324,0.013523,0.002678,0.000431,0.001175
99889000,0.0324,0.013523,0.002678,0.000431,0.001880
99890000,0.0324,0.013523,0.002678,0.000431,0.001410
99891000,0.0324,0.013523,0.002678,0.000431,0.001645
99892000,0.0324,0.013523,0.002678,0.000431,0.001645
99893000,0.0324,0.013523,0.002678,0.000431,0.001410
99894000,0.0324,0.013523,0.002678,0.000431,0.001645
99895000,0.0324,0.013523,0.002678,0.000431,0.001645
99896000,0.0324,0.013523,0.002678,0.000431,0.001645
99897000,0.0324,0.013523,0.002678,0.000431,0.001410
99898000,0.0324,0.013523,0.002678,0.000431,0.001645
99899000,0.0324,0.013523,0.002678,0.000431,0.001645
99900000,0.0324,0.013523,0.002678,0.000431,0.071457
99901000,0.0324,0.013523,0.002678,0.000431,0.500317
99902000,0.0324,0.013523,0.002678,0.000431,0.585878
99903000,0.0324,0.013523,0.002678,0.000431,0.131161
99904000,0.0324,0.013523,0.002678,0.000431,0.134452
99905000,0.0324,0.013523,0.002678,0.000431,0.554968
99906000,0.0324,0.013523,0.002678,0.000431,0.226947
99907000,0.0324,0.013523,0.002678,0.000431,0.242813
99908000,0.0324,0.013523,0.002678,0.000431,0.330842
99909000,0.0324,0.013523,0.002678,0.000431,0.145617
99910000,0.0324,0.013523,0.002678,0.000431,0.143267
99911000,0.0324,0.013523,0.002678,0.000431,0.123875
99912000,0.0324,0.013523,0.002678,0.000431,0.317444
99913000,0.0324,0.013523,0.002678,0.000431,0.288884
99914000,0.0324,0.013523,0.002678,0.000431,0.072162
99915000,0.0324,0.013523,0.002678,0.000431,0.054886
99916000,0.0324,0.013523,0.002678,0.000431,0.049832
99917000,0.0324,0.013523,0.002678,0.000431,0.039254
99918000,0.0324,0.013523,0.002678,0.000431,0.039960
99919000,0.0324,0.013523,0.002678,0.000431,0.030087
99920000,0.0324,0.013523,0.002678,0.000431,0.032790
99921000,0.0324,0.013523,0.002678,0.000431,0.028207
99922000,0.0324,0.013523,0.002678,0.000431,0.026326
99923000,0.0324,0.013523,0.002678,0.000431,0.020097
99924000,0.0324,0.013523,0.002678,0.000431,0.021508
99925000,0.0324,0.013523,0.002678,0.000431,0.016924
99926000,0.0324,0.013523,0.002678,0.000431,0.019510
99927000,0.0324,0.013523,0.002678,0.000431,0.018217
99928000,0.0324,0.013523,0.002678,0.000431,0.013163
99929000,0.0324,0.013523,0.002678,0.000431,0.013516
99930000,0.0324,0.013523,0.002678,0.000431,0.014573
99931000,0.0324,0.013523,0.002678,0.000431,0.012811
99932000,0.0324,0.013523,0.002678,0.000431,0.011988
99933000,0.0324,0.013523,0.002678,0.000431,0.011870
99934000,0.0324,0.013523,0.002678,0.000431,0.008109
99935000,0.0324,0.013523,0.002678,0.000431,0.008580
99936000,0.0324,0.013523,0.002678,0.000431,0.008227
99937000,0.0324,0.013523,0.002678,0.000431,0.008462
99938000,0.0324,0.013523,0.002678,0.000431,0.008227
99939000,0.0324,0.013523,0.002678,0.000431,0.008580
99940000,0.0324,0.013523,0.002678,0.000431,0.008227
99941000,0.0324,0.013523,0.002678,0.000431,0.009285
99942000,0.0324,0.013523,0.002678,0.000431,0.008462
99943000,0.0324,0.013523,0.002678,0.000431,0.008462
99944000,0.0324,0.013523,0.002678,0.000431,0.007757
99945000,0.0324,0.013523,0.002678,0.000431,0.006582
99946000,0.0324,0.013523,0.002678,0.000431,0.006934
99947000,0.0324,0.013523,0.002678,0.000431,0.006582
99948000,0.0324,0.013523,0.002678,0.000431,0.006347
99949000,0.0324,0.013523,0.002678,0.000431,0.007757
99950000,0.0324,0.013523,0.002678,0.000431,0.009402
99951000,0.0324,0.013523,0.002678,0.000431,0.004936
99952000,0.0324,0.013523,0.002678,0.000431,0.004819
99953000,0.0324,0.013523,0.002678,0.000431,0.005406
99954000,0.0324,0.013523,0.002678,0.000431,0.004701
99955000,0.0324,0.013523,0.002678,0.000431,0.004819
99956000,0.0324,0.013523,0.002678,0.000431,0.005171
99957000,0.0324,0.013523,0.002678,0.000431,0.005289
99958000,0.0324,0.013523,0.002678,0.000431,0.003291
99959000,0.0324,0.013523,0.002678,0.000431,0.003056
99960000,0.0324,0.013523,0.002678,0.000431,0.004466
99961000,0.0324,0.013523,0.002678,0.000431,0.002468
99962000,0.0324,0.013523,0.002678,0.000431,0.001998
99963000,0.0324,0.013523,0.002678,0.000431,0.002703
99964000,0.0324,0.013523,0.002678,0.000431,0.001998
99965000,0.0324,0.013523,0.002678,0.000431,0.002821
99966000,0.0324,0.013523,0.002678,0.000431,0.002116
99967000,0.0324,0.013523,0.002678,0.000431,0.002586
99968000,0.0324,0.013523,0.002678,0.000431,0.002351
99969000,0.0324,0.013523,0.002678,0.000431,0.002351
99970000,0.0324,0.013523,0.002678,0.000431,0.002586
99971000,0.0324,0.013523,0.002678,0.000431,0.001998
99972000,0.0324,0.013523,0.002678,0.000431,0.002468
99973000,0.0324,0.013523,0.002678,0.000431,0.002116
99974000,0.0324,0.013523,0.002678,0.000431,0.002821
99975000,0.0324,0.013523,0.002678,0.000431,0.002233
99976000,0.0324,0.013523,0.002678,0.000431,0.002468
99977000,0.0324,0.013523,0.002678,0.000431,0.002233
99978000,0.0324,0.013523,0.002678,0.000431,0.002468
99979000,0.0324,0.013523,0.002678,0.000431,0.002821
99980000,0.0324,0.013523,0.002678,0.000431,0.001998
99981000,0.0324,0.013523,0.002678,0.000431,0.002703
99982000,0.0324,0.013523,0.002678,0.000431,0.002116
99983000,0.0324,0.013523,0.002678,0.000431,0.002586
99984000,0.0324,0.013523,0.002678,0.000431,0.002468
99985000,0.0324,0.013523,0.002678,0.000431,0.002233
99986000,0.0324,0.013523,0.002678,0.000431,0.002116
99987000,0.0324,0.013523,0.002678,0.000431,0.001528
99988000,0.0324,0.013523,0.002678,0.000431,0.001645
99989000,0.0324,0.013523,0.002678,0.000431,0.002703
99990000,0.0324,0.013523,0.002678,0.000431,0.051947
99991000,0.0324,0.013523,0.002678,0.000431,0.474344
99992000,0.0324,0.013523,0.002678,0.000431,0.603037
99993000,0.0324,0.013523,0.002678,0.000431,0.130691
99994000,0.0324,0.013523,0.002678,0.000431,0.133982
99995000,0.0324,0.013523,0.002678,0.000431,0.520650
99996000,0.0324,0.013523,0.002678,0.000431,0.288532
99997000,0.0324,0.013523,0.002678,0.000431,0.255271
99998000,0.0324,0.013523,0.002678,0.000431,0.269962
99999000,0.0324,0.013523,0.002678,0.000431,0.139036
