Cycle,Area(mm^2),PeakDynamic(W),SubthresholdLeakage(W),GateLeakage(W),RunTimeDynamic(W)
80000000,0.0324,0.013523,0.002678,0.000431,0.025034
80001000,0.0324,0.013523,0.002678,0.000431,0.017747
80002000,0.0324,0.013523,0.002678,0.000431,0.016807
80003000,0.0324,0.013523,0.002678,0.000431,0.013046
80004000,0.0324,0.013523,0.002678,0.000431,0.011988
80005000,0.0324,0.013523,0.002678,0.000431,0.012340
80006000,0.0324,0.013523,0.002678,0.000431,0.007992
80007000,0.0324,0.013523,0.002678,0.000431,0.008580
80008000,0.0324,0.013523,0.002678,0.000431,0.010930
80009000,0.0324,0.013523,0.002678,0.000431,0.008580
80010000,0.0324,0.013523,0.002678,0.000431,0.007404
80011000,0.0324,0.013523,0.002678,0.000431,0.007874
80012000,0.0324,0.013523,0.002678,0.000431,0.003643
80013000,0.0324,0.013523,0.002678,0.000431,0.004349
80014000,0.0324,0.013523,0.002678,0.000431,0.003761
80015000,0.0324,0.013523,0.002678,0.000431,0.002703
80016000,0.0324,0.013523,0.002678,0.000431,0.002468
80017000,0.0324,0.013523,0.002678,0.000431,0.002703
80018000,0.0324,0.013523,0.002678,0.000431,0.002586
80019000,0.0324,0.013523,0.002678,0.000431,0.004819
80020000,0.0324,0.013523,0.002678,0.000431,0.001645
80021000,0.0324,0.013523,0.002678,0.000431,0.001763
80022000,0.0324,0.013523,0.002678,0.000431,0.001880
80023000,0.0324,0.013523,0.002678,0.000431,0.001763
80024000,0.0324,0.013523,0.002678,0.000431,0.001645
80025000,0.0324,0.013523,0.002678,0.000431,0.001763
80026000,0.0324,0.013523,0.002678,0.000431,0.001763
80027000,0.0324,0.013523,0.002678,0.000431,0.001763
80028000,0.0324,0.013523,0.002678,0.000431,0.001763
80029000,0.0324,0.013523,0.002678,0.000431,0.001880
80030000,0.0324,0.013523,0.002678,0.000431,0.001645
80031000,0.0324,0.013523,0.002678,0.000431,0.001763
80032000,0.0324,0.013523,0.002678,0.000431,0.001763
80033000,0.0324,0.013523,0.002678,0.000431,0.001763
80034000,0.0324,0.013523,0.002678,0.000431,0.001645
80035000,0.0324,0.013523,0.002678,0.000431,0.001880
80036000,0.0324,0.013523,0.002678,0.000431,0.001763
80037000,0.0324,0.013523,0.002678,0.000431,0.001763
80038000,0.0324,0.013523,0.002678,0.000431,0.001645
80039000,0.0324,0.013523,0.002678,0.000431,0.001763
80040000,0.0324,0.013523,0.002678,0.000431,0.001763
80041000,0.0324,0.013523,0.002678,0.000431,0.001880
80042000,0.0324,0.013523,0.002678,0.000431,0.001763
80043000,0.0324,0.013523,0.002678,0.000431,0.001645
80044000,0.0324,0.013523,0.002678,0.000431,0.001763
80045000,0.0324,0.013523,0.002678,0.000431,0.001763
80046000,0.0324,0.013523,0.002678,0.000431,0.003291
80047000,0.0324,0.013523,0.002678,0.000431,0.000823
80048000,0.0324,0.013523,0.002678,0.000431,0.000940
80049000,0.0324,0.013523,0.002678,0.000431,0.000823
80050000,0.0324,0.013523,0.002678,0.000431,0.000940
80051000,0.0324,0.013523,0.002678,0.000431,0.000823
80052000,0.0324,0.013523,0.002678,0.000431,0.000940
80053000,0.0324,0.013523,0.002678,0.000431,0.000823
80054000,0.0324,0.013523,0.002678,0.000431,0.000823
80055000,0.0324,0.013523,0.002678,0.000431,0.000940
80056000,0.0324,0.013523,0.002678,0.000431,0.000940
80057000,0.0324,0.013523,0.002678,0.000431,0.000823
80058000,0.0324,0.013523,0.002678,0.000431,0.000823
80059000,0.0324,0.013523,0.002678,0.000431,0.000940
80060000,0.0324,0.013523,0.002678,0.000431,0.000940
80061000,0.0324,0.013523,0.002678,0.000431,0.000705
80062000,0.0324,0.013523,0.002678,0.000431,0.000940
80063000,0.0324,0.013523,0.002678,0.000431,0.000940
80064000,0.0324,0.013523,0.002678,0.000431,0.000940
80065000,0.0324,0.013523,0.002678,0.000431,0.000705
80066000,0.0324,0.013523,0.002678,0.000431,0.000940
80067000,0.0324,0.013523,0.002678,0.000431,0.000940
80068000,0.0324,0.013523,0.002678,0.000431,0.000823
80069000,0.0324,0.013523,0.002678,0.000431,0.000940
80070000,0.0324,0.013523,0.002678,0.000431,0.000823
80071000,0.0324,0.013523,0.002678,0.000431,0.000940
80072000,0.0324,0.013523,0.002678,0.000431,0.000823
80073000,0.0324,0.013523,0.002678,0.000431,0.000823
80074000,0.0324,0.013523,0.002678,0.000431,0.000940
80075000,0.0324,0.013523,0.002678,0.000431,0.000940
80076000,0.0324,0.013523,0.002678,0.000431,0.000823
80077000,0.0324,0.013523,0.002678,0.000431,0.000823
80078000,0.0324,0.013523,0.002678,0.000431,0.000940
80079000,0.0324,0.013523,0.002678,0.000431,0.000940
80080000,0.0324,0.013523,0.002678,0.000431,0.000705
80081000,0.0324,0.013523,0.002678,0.000431,0.000940
80082000,0.0324,0.013523,0.002678,0.000431,0.000940
80083000,0.0324,0.013523,0.002678,0.000431,0.000940
80084000,0.0324,0.013523,0.002678,0.000431,0.000705
80085000,0.0324,0.013523,0.002678,0.000431,0.000940
80086000,0.0324,0.013523,0.002678,0.000431,0.000940
80087000,0.0324,0.013523,0.002678,0.000431,0.000823
80088000,0.0324,0.013523,0.002678,0.000431,0.000823
80089000,0.0324,0.013523,0.002678,0.000431,0.000940
80090000,0.0324,0.013523,0.002678,0.000431,0.000823
80091000,0.0324,0.013523,0.002678,0.000431,0.000940
80092000,0.0324,0.013523,0.002678,0.000431,0.000823
80093000,0.0324,0.013523,0.002678,0.000431,0.000940
80094000,0.0324,0.013523,0.002678,0.000431,0.000823
80095000,0.0324,0.013523,0.002678,0.000431,0.000823
80096000,0.0324,0.013523,0.002678,0.000431,0.000940
80097000,0.0324,0.013523,0.002678,0.000431,0.000940
80098000,0.0324,0.013523,0.002678,0.000431,0.000823
80099000,0.0324,0.013523,0.002678,0.000431,0.000823
80100000,0.0324,0.013523,0.002678,0.000431,0.000940
80101000,0.0324,0.013523,0.002678,0.000431,0.000940
80102000,0.0324,0.013523,0.002678,0.000431,0.000823
80103000,0.0324,0.013523,0.002678,0.000431,0.000823
80104000,0.0324,0.013523,0.002678,0.000431,0.000940
80105000,0.0324,0.013523,0.002678,0.000431,0.000940
80106000,0.0324,0.013523,0.002678,0.000431,0.000823
80107000,0.0324,0.013523,0.002678,0.000431,0.000823
80108000,0.0324,0.013523,0.002678,0.000431,0.000940
80109000,0.0324,0.013523,0.002678,0.000431,0.000823
80110000,0.0324,0.013523,0.002678,0.000431,0.000940
80111000,0.0324,0.013523,0.002678,0.000431,0.000823
80112000,0.0324,0.013523,0.002678,0.000431,0.000940
80113000,0.0324,0.013523,0.002678,0.000431,0.000823
80114000,0.0324,0.013523,0.002678,0.000431,0.000823
80115000,0.0324,0.013523,0.002678,0.000431,0.000940
80116000,0.0324,0.013523,0.002678,0.000431,0.000940
80117000,0.0324,0.013523,0.002678,0.000431,0.000823
80118000,0.0324,0.013523,0.002678,0.000431,0.000823
80119000,0.0324,0.013523,0.002678,0.000431,0.000940
80120000,0.0324,0.013523,0.002678,0.000431,0.000940
80121000,0.0324,0.013523,0.002678,0.000431,0.000705
80122000,0.0324,0.013523,0.002678,0.000431,0.000940
80123000,0.0324,0.013523,0.002678,0.000431,0.000940
80124000,0.0324,0.013523,0.002678,0.000431,0.000940
80125000,0.0324,0.013523,0.002678,0.000431,0.000705
80126000,0.0324,0.013523,0.002678,0.000431,0.000940
80127000,0.0324,0.013523,0.002678,0.000431,0.000940
80128000,0.0324,0.013523,0.002678,0.000431,0.000823
80129000,0.0324,0.013523,0.002678,0.000431,0.000940
80130000,0.0324,0.013523,0.002678,0.000431,0.000823
80131000,0.0324,0.013523,0.002678,0.000431,0.000940
80132000,0.0324,0.013523,0.002678,0.000431,0.000823
80133000,0.0324,0.013523,0.002678,0.000431,0.000823
80134000,0.0324,0.013523,0.002678,0.000431,0.000940
80135000,0.0324,0.013523,0.002678,0.000431,0.000940
80136000,0.0324,0.013523,0.002678,0.000431,0.000705
80137000,0.0324,0.013523,0.002678,0.000431,0.000940
80138000,0.0324,0.013523,0.002678,0.000431,0.000940
80139000,0.0324,0.013523,0.002678,0.000431,0.000940
80140000,0.0324,0.013523,0.002678,0.000431,0.000705
80141000,0.0324,0.013523,0.002678,0.000431,0.000940
80142000,0.0324,0.013523,0.002678,0.000431,0.000940
80143000,0.0324,0.013523,0.002678,0.000431,0.000823
80144000,0.0324,0.013523,0.002678,0.000431,0.000823
80145000,0.0324,0.013523,0.002678,0.000431,0.000940
80146000,0.0324,0.013523,0.002678,0.000431,0.187928
80147000,0.0324,0.013523,0.002678,0.000431,0.486802
80148000,0.0324,0.013523,0.002678,0.000431,0.526644
80149000,0.0324,0.013523,0.002678,0.000431,0.133982
80150000,0.0324,0.013523,0.002678,0.000431,0.132572
80151000,0.0324,0.013523,0.002678,0.000431,0.548386
80152000,0.0324,0.013523,0.002678,0.000431,0.254801
80153000,0.0324,0.013523,0.002678,0.000431,0.219778
80154000,0.0324,0.013523,0.002678,0.000431,0.335425
80155000,0.0324,0.013523,0.002678,0.000431,0.150319
80156000,0.0324,0.013523,0.002678,0.000431,0.137978
80157000,0.0324,0.013523,0.002678,0.000431,0.112474
80158000,0.0324,0.013523,0.002678,0.000431,0.361047
80159000,0.0324,0.013523,0.002678,0.000431,0.260090
80160000,0.0324,0.013523,0.002678,0.000431,0.072162
80161000,0.0324,0.013523,0.002678,0.000431,0.066051
80162000,0.0324,0.013523,0.002678,0.000431,0.058176
80163000,0.0324,0.013523,0.002678,0.000431,0.046541
80164000,0.0324,0.013523,0.002678,0.000431,0.040077
80165000,0.0324,0.013523,0.002678,0.000431,0.042075
80166000,0.0324,0.013523,0.002678,0.000431,0.032790
80167000,0.0324,0.013523,0.002678,0.000431,0.032203
80168000,0.0324,0.013523,0.002678,0.000431,0.025504
80169000,0.0324,0.013523,0.002678,0.000431,0.022095
80170000,0.0324,0.013523,0.002678,0.000431,0.022565
80171000,0.0324,0.013523,0.002678,0.000431,0.022918
80172000,0.0324,0.013523,0.002678,0.000431,0.019510
80173000,0.0324,0.013523,0.002678,0.000431,0.025739
80174000,0.0324,0.013523,0.002678,0.000431,0.018334
80175000,0.0324,0.013523,0.002678,0.000431,0.016924
80176000,0.0324,0.013523,0.002678,0.000431,0.015749
80177000,0.0324,0.013523,0.002678,0.000431,0.014809
80178000,0.0324,0.013523,0.002678,0.000431,0.015279
80179000,0.0324,0.013523,0.002678,0.000431,0.016219
80180000,0.0324,0.013523,0.002678,0.000431,0.018569
80181000,0.0324,0.013523,0.002678,0.000431,0.015514
80182000,0.0324,0.013523,0.002678,0.000431,0.013398
80183000,0.0324,0.013523,0.002678,0.000431,0.014926
80184000,0.0324,0.013523,0.002678,0.000431,0.014573
80185000,0.0324,0.013523,0.002678,0.000431,0.007992
80186000,0.0324,0.013523,0.002678,0.000431,0.008345
80187000,0.0324,0.013523,0.002678,0.000431,0.007874
80188000,0.0324,0.013523,0.002678,0.000431,0.008932
80189000,0.0324,0.013523,0.002678,0.000431,0.007874
80190000,0.0324,0.013523,0.002678,0.000431,0.007874
80191000,0.0324,0.013523,0.002678,0.000431,0.008815
80192000,0.0324,0.013523,0.002678,0.000431,0.007992
80193000,0.0324,0.013523,0.002678,0.000431,0.009520
80194000,0.0324,0.013523,0.002678,0.000431,0.007522
80195000,0.0324,0.013523,0.002678,0.000431,0.007287
80196000,0.0324,0.013523,0.002678,0.000431,0.007287
80197000,0.0324,0.013523,0.002678,0.000431,0.007404
80198000,0.0324,0.013523,0.002678,0.000431,0.007522
80199000,0.0324,0.013523,0.002678,0.000431,0.008580
80200000,0.0324,0.013523,0.002678,0.000431,0.007992
80201000,0.0324,0.013523,0.002678,0.000431,0.006229
80202000,0.0324,0.013523,0.002678,0.000431,0.006934
80203000,0.0324,0.013523,0.002678,0.000431,0.005759
80204000,0.0324,0.013523,0.002678,0.000431,0.005054
80205000,0.0324,0.013523,0.002678,0.000431,0.004584
80206000,0.0324,0.013523,0.002678,0.000431,0.005406
80207000,0.0324,0.013523,0.002678,0.000431,0.005171
80208000,0.0324,0.013523,0.002678,0.000431,0.006229
80209000,0.0324,0.013523,0.002678,0.000431,0.005759
80210000,0.0324,0.013523,0.002678,0.000431,0.002938
80211000,0.0324,0.013523,0.002678,0.000431,0.003643
80212000,0.0324,0.013523,0.002678,0.000431,0.003173
80213000,0.0324,0.013523,0.002678,0.000431,0.003173
80214000,0.0324,0.013523,0.002678,0.000431,0.003173
80215000,0.0324,0.013523,0.002678,0.000431,0.003291
80216000,0.0324,0.013523,0.002678,0.000431,0.003291
80217000,0.0324,0.013523,0.002678,0.000431,0.003173
80218000,0.0324,0.013523,0.002678,0.000431,0.003408
80219000,0.0324,0.013523,0.002678,0.000431,0.002938
80220000,0.0324,0.013523,0.002678,0.000431,0.003526
80221000,0.0324,0.013523,0.002678,0.000431,0.003291
80222000,0.0324,0.013523,0.002678,0.000431,0.003291
80223000,0.0324,0.013523,0.002678,0.000431,0.002938
80224000,0.0324,0.013523,0.002678,0.000431,0.003408
80225000,0.0324,0.013523,0.002678,0.000431,0.003173
80226000,0.0324,0.013523,0.002678,0.000431,0.003173
80227000,0.0324,0.013523,0.002678,0.000431,0.003761
80228000,0.0324,0.013523,0.002678,0.000431,0.002586
80229000,0.0324,0.013523,0.002678,0.000431,0.003643
80230000,0.0324,0.013523,0.002678,0.000431,0.003173
80231000,0.0324,0.013523,0.002678,0.000431,0.003291
80232000,0.0324,0.013523,0.002678,0.000431,0.003408
80233000,0.0324,0.013523,0.002678,0.000431,0.002938
80234000,0.0324,0.013523,0.002678,0.000431,0.003408
80235000,0.0324,0.013523,0.002678,0.000431,0.003291
80236000,0.0324,0.013523,0.002678,0.000431,0.003408
80237000,0.0324,0.013523,0.002678,0.000431,0.004701
80238000,0.0324,0.013523,0.002678,0.000431,0.002468
80239000,0.0324,0.013523,0.002678,0.000431,0.002468
80240000,0.0324,0.013523,0.002678,0.000431,0.002468
80241000,0.0324,0.013523,0.002678,0.000431,0.002351
80242000,0.0324,0.013523,0.002678,0.000431,0.004584
80243000,0.0324,0.013523,0.002678,0.000431,0.001293
80244000,0.0324,0.013523,0.002678,0.000431,0.001763
80245000,0.0324,0.013523,0.002678,0.000431,0.001880
80246000,0.0324,0.013523,0.002678,0.000431,0.001175
80247000,0.0324,0.013523,0.002678,0.000431,0.001645
80248000,0.0324,0.013523,0.002678,0.000431,0.001410
80249000,0.0324,0.013523,0.002678,0.000431,0.001645
80250000,0.0324,0.013523,0.002678,0.000431,0.001645
80251000,0.0324,0.013523,0.002678,0.000431,0.001645
80252000,0.0324,0.013523,0.002678,0.000431,0.001410
80253000,0.0324,0.013523,0.002678,0.000431,0.001645
80254000,0.0324,0.013523,0.002678,0.000431,0.001293
80255000,0.0324,0.013523,0.002678,0.000431,0.001763
80256000,0.0324,0.013523,0.002678,0.000431,0.001880
80257000,0.0324,0.013523,0.002678,0.000431,0.001175
80258000,0.0324,0.013523,0.002678,0.000431,0.001880
80259000,0.0324,0.013523,0.002678,0.000431,0.001293
80260000,0.0324,0.013523,0.002678,0.000431,0.001763
80261000,0.0324,0.013523,0.002678,0.000431,0.001645
80262000,0.0324,0.013523,0.002678,0.000431,0.001410
80263000,0.0324,0.013523,0.002678,0.000431,0.001645
80264000,0.0324,0.013523,0.002678,0.000431,0.001528
80265000,0.0324,0.013523,0.002678,0.000431,0.001763
80266000,0.0324,0.013523,0.002678,0.000431,0.001410
80267000,0.0324,0.013523,0.002678,0.000431,0.001645
80268000,0.0324,0.013523,0.002678,0.000431,0.001645
80269000,0.0324,0.013523,0.002678,0.000431,0.001528
80270000,0.0324,0.013523,0.002678,0.000431,0.001528
80271000,0.0324,0.013523,0.002678,0.000431,0.001645
80272000,0.0324,0.013523,0.002678,0.000431,0.001410
80273000,0.0324,0.013523,0.002678,0.000431,0.001645
80274000,0.0324,0.013523,0.002678,0.000431,0.001410
80275000,0.0324,0.013523,0.002678,0.000431,0.001645
80276000,0.0324,0.013523,0.002678,0.000431,0.001880
80277000,0.0324,0.013523,0.002678,0.000431,0.001175
80278000,0.0324,0.013523,0.002678,0.000431,0.001880
80279000,0.0324,0.013523,0.002678,0.000431,0.001410
80280000,0.0324,0.013523,0.002678,0.000431,0.001645
80281000,0.0324,0.013523,0.002678,0.000431,0.001645
80282000,0.0324,0.013523,0.002678,0.000431,0.001410
80283000,0.0324,0.013523,0.002678,0.000431,0.001880
80284000,0.0324,0.013523,0.002678,0.000431,0.001410
80285000,0.0324,0.013523,0.002678,0.000431,0.001645
80286000,0.0324,0.013523,0.002678,0.000431,0.001645
80287000,0.0324,0.013523,0.002678,0.000431,0.001410
80288000,0.0324,0.013523,0.002678,0.000431,0.001763
80289000,0.0324,0.013523,0.002678,0.000431,0.001763
80290000,0.0324,0.013523,0.002678,0.000431,0.001645
80291000,0.0324,0.013523,0.002678,0.000431,0.213079
80292000,0.0324,0.013523,0.002678,0.000431,0.644407
80293000,0.0324,0.013523,0.002678,0.000431,0.347178
80294000,0.0324,0.013523,0.002678,0.000431,0.131161
80295000,0.0324,0.013523,0.002678,0.000431,0.133982
80296000,0.0324,0.013523,0.002678,0.000431,0.586701
80297000,0.0324,0.013523,0.002678,0.000431,0.234469
80298000,0.0324,0.013523,0.002678,0.000431,0.291822
80299000,0.0324,0.013523,0.002678,0.000431,0.293938
80300000,0.0324,0.013523,0.002678,0.000431,0.137155
80301000,0.0324,0.013523,0.002678,0.000431,0.179818
80302000,0.0324,0.013523,0.002678,0.000431,0.082505
80303000,0.0324,0.013523,0.002678,0.000431,0.481160
80304000,0.0324,0.013523,0.002678,0.000431,0.147850
80305000,0.0324,0.013523,0.002678,0.000431,0.105423
80306000,0.0324,0.013523,0.002678,0.000431,0.098724
80307000,0.0324,0.013523,0.002678,0.000431,0.070517
80308000,0.0324,0.013523,0.002678,0.000431,0.071575
80309000,0.0324,0.013523,0.002678,0.000431,0.061820
80310000,0.0324,0.013523,0.002678,0.000431,0.049949
80311000,0.0324,0.013523,0.002678,0.000431,0.039254
80312000,0.0324,0.013523,0.002678,0.000431,0.041840
80313000,0.0324,0.013523,0.002678,0.000431,0.033731
80314000,0.0324,0.013523,0.002678,0.000431,0.028324
80315000,0.0324,0.013523,0.002678,0.000431,0.027384
80316000,0.0324,0.013523,0.002678,0.000431,0.027267
80317000,0.0324,0.013523,0.002678,0.000431,0.028677
80318000,0.0324,0.013523,0.002678,0.000431,0.025386
80319000,0.0324,0.013523,0.002678,0.000431,0.017042
80320000,0.0324,0.013523,0.002678,0.000431,0.015866
80321000,0.0324,0.013523,0.002678,0.000431,0.016807
80322000,0.0324,0.013523,0.002678,0.000431,0.021860
80323000,0.0324,0.013523,0.002678,0.000431,0.012576
80324000,0.0324,0.013523,0.002678,0.000431,0.014456
80325000,0.0324,0.013523,0.002678,0.000431,0.008227
80326000,0.0324,0.013523,0.002678,0.000431,0.009637
80327000,0.0324,0.013523,0.002678,0.000431,0.007757
80328000,0.0324,0.013523,0.002678,0.000431,0.007757
80329000,0.0324,0.013523,0.002678,0.000431,0.007639
80330000,0.0324,0.013523,0.002678,0.000431,0.008109
80331000,0.0324,0.013523,0.002678,0.000431,0.005524
80332000,0.0324,0.013523,0.002678,0.000431,0.007522
80333000,0.0324,0.013523,0.002678,0.000431,0.005524
80334000,0.0324,0.013523,0.002678,0.000431,0.004701
80335000,0.0324,0.013523,0.002678,0.000431,0.002938
80336000,0.0324,0.013523,0.002678,0.000431,0.003643
80337000,0.0324,0.013523,0.002678,0.000431,0.002938
80338000,0.0324,0.013523,0.002678,0.000431,0.003526
80339000,0.0324,0.013523,0.002678,0.000431,0.003291
80340000,0.0324,0.013523,0.002678,0.000431,0.003291
80341000,0.0324,0.013523,0.002678,0.000431,0.005994
80342000,0.0324,0.013523,0.002678,0.000431,0.001763
80343000,0.0324,0.013523,0.002678,0.000431,0.001763
80344000,0.0324,0.013523,0.002678,0.000431,0.001763
80345000,0.0324,0.013523,0.002678,0.000431,0.004584
80346000,0.0324,0.013523,0.002678,0.000431,0.000940
80347000,0.0324,0.013523,0.002678,0.000431,0.000940
80348000,0.0324,0.013523,0.002678,0.000431,0.000705
80349000,0.0324,0.013523,0.002678,0.000431,0.001763
80350000,0.0324,0.013523,0.002678,0.000431,0.398538
80351000,0.0324,0.013523,0.002678,0.000431,0.681076
80352000,0.0324,0.013523,0.002678,0.000431,0.182404
80353000,0.0324,0.013523,0.002678,0.000431,0.137155
80354000,0.0324,0.013523,0.002678,0.000431,0.169358
80355000,0.0324,0.013523,0.002678,0.000431,0.585290
80356000,0.0324,0.013523,0.002678,0.000431,0.240698
80357000,0.0324,0.013523,0.002678,0.000431,0.343887
80358000,0.0324,0.013523,0.002678,0.000431,0.196860
80359000,0.0324,0.013523,0.002678,0.000431,0.151141
80360000,0.0324,0.013523,0.002678,0.000431,0.111769
80361000,0.0324,0.013523,0.002678,0.000431,0.336718
80362000,0.0324,0.013523,0.002678,0.000431,0.265731
80363000,0.0324,0.013523,0.002678,0.000431,0.052300
80364000,0.0324,0.013523,0.002678,0.000431,0.049009
80365000,0.0324,0.013523,0.002678,0.000431,0.046659
80366000,0.0324,0.013523,0.002678,0.000431,0.038079
80367000,0.0324,0.013523,0.002678,0.000431,0.033966
80368000,0.0324,0.013523,0.002678,0.000431,0.027972
80369000,0.0324,0.013523,0.002678,0.000431,0.035846
80370000,0.0324,0.013523,0.002678,0.000431,0.025739
80371000,0.0324,0.013523,0.002678,0.000431,0.022565
80372000,0.0324,0.013523,0.002678,0.000431,0.019157
80373000,0.0324,0.013523,0.002678,0.000431,0.021508
80374000,0.0324,0.013523,0.002678,0.000431,0.023271
80375000,0.0324,0.013523,0.002678,0.000431,0.017277
80376000,0.0324,0.013523,0.002678,0.000431,0.014573
80377000,0.0324,0.013523,0.002678,0.000431,0.011753
80378000,0.0324,0.013523,0.002678,0.000431,0.014691
80379000,0.0324,0.013523,0.002678,0.000431,0.010107
80380000,0.0324,0.013523,0.002678,0.000431,0.009990
80381000,0.0324,0.013523,0.002678,0.000431,0.009637
80382000,0.0324,0.013523,0.002678,0.000431,0.010578
80383000,0.0324,0.013523,0.002678,0.000431,0.010107
80384000,0.0324,0.013523,0.002678,0.000431,0.010460
80385000,0.0324,0.013523,0.002678,0.000431,0.009990
80386000,0.0324,0.013523,0.002678,0.000431,0.010107
80387000,0.0324,0.013523,0.002678,0.000431,0.010695
80388000,0.0324,0.013523,0.002678,0.000431,0.009872
80389000,0.0324,0.013523,0.002678,0.000431,0.013163
80390000,0.0324,0.013523,0.002678,0.000431,0.009167
80391000,0.0324,0.013523,0.002678,0.000431,0.008815
80392000,0.0324,0.013523,0.002678,0.000431,0.009872
80393000,0.0324,0.013523,0.002678,0.000431,0.009637
80394000,0.0324,0.013523,0.002678,0.000431,0.009050
80395000,0.0324,0.013523,0.002678,0.000431,0.009520
80396000,0.0324,0.013523,0.002678,0.000431,0.009520
80397000,0.0324,0.013523,0.002678,0.000431,0.009402
80398000,0.0324,0.013523,0.002678,0.000431,0.009402
80399000,0.0324,0.013523,0.002678,0.000431,0.009402
80400000,0.0324,0.013523,0.002678,0.000431,0.009520
80401000,0.0324,0.013523,0.002678,0.000431,0.009755
80402000,0.0324,0.013523,0.002678,0.000431,0.009402
80403000,0.0324,0.013523,0.002678,0.000431,0.009167
80404000,0.0324,0.013523,0.002678,0.000431,0.009990
80405000,0.0324,0.013523,0.002678,0.000431,0.009755
80406000,0.0324,0.013523,0.002678,0.000431,0.009050
80407000,0.0324,0.013523,0.002678,0.000431,0.009402
80408000,0.0324,0.013523,0.002678,0.000431,0.009637
80409000,0.0324,0.013523,0.002678,0.000431,0.009755
80410000,0.0324,0.013523,0.002678,0.000431,0.008580
80411000,0.0324,0.013523,0.002678,0.000431,0.009872
80412000,0.0324,0.013523,0.002678,0.000431,0.011283
80413000,0.0324,0.013523,0.002678,0.000431,0.008227
80414000,0.0324,0.013523,0.002678,0.000431,0.007992
80415000,0.0324,0.013523,0.002678,0.000431,0.009050
80416000,0.0324,0.013523,0.002678,0.000431,0.009402
80417000,0.0324,0.013523,0.002678,0.000431,0.008109
80418000,0.0324,0.013523,0.002678,0.000431,0.008462
80419000,0.0324,0.013523,0.002678,0.000431,0.009167
80420000,0.0324,0.013523,0.002678,0.000431,0.008815
80421000,0.0324,0.013523,0.002678,0.000431,0.008227
80422000,0.0324,0.013523,0.002678,0.000431,0.009637
80423000,0.0324,0.013523,0.002678,0.000431,0.009050
80424000,0.0324,0.013523,0.002678,0.000431,0.007992
80425000,0.0324,0.013523,0.002678,0.000431,0.007522
80426000,0.0324,0.013523,0.002678,0.000431,0.010460
80427000,0.0324,0.013523,0.002678,0.000431,0.007052
80428000,0.0324,0.013523,0.002678,0.000431,0.006699
80429000,0.0324,0.013523,0.002678,0.000431,0.006817
80430000,0.0324,0.013523,0.002678,0.000431,0.006934
80431000,0.0324,0.013523,0.002678,0.000431,0.007052
80432000,0.0324,0.013523,0.002678,0.000431,0.006934
80433000,0.0324,0.013523,0.002678,0.000431,0.007522
80434000,0.0324,0.013523,0.002678,0.000431,0.009167
80435000,0.0324,0.013523,0.002678,0.000431,0.005524
80436000,0.0324,0.013523,0.002678,0.000431,0.004936
80437000,0.0324,0.013523,0.002678,0.000431,0.004819
80438000,0.0324,0.013523,0.002678,0.000431,0.005641
80439000,0.0324,0.013523,0.002678,0.000431,0.005171
80440000,0.0324,0.013523,0.002678,0.000431,0.004819
80441000,0.0324,0.013523,0.002678,0.000431,0.005054
80442000,0.0324,0.013523,0.002678,0.000431,0.005406
80443000,0.0324,0.013523,0.002678,0.000431,0.004936
80444000,0.0324,0.013523,0.002678,0.000431,0.005054
80445000,0.0324,0.013523,0.002678,0.000431,0.005289
80446000,0.0324,0.013523,0.002678,0.000431,0.005054
80447000,0.0324,0.013523,0.002678,0.000431,0.005406
80448000,0.0324,0.013523,0.002678,0.000431,0.004819
80449000,0.0324,0.013523,0.002678,0.000431,0.005406
80450000,0.0324,0.013523,0.002678,0.000431,0.005289
80451000,0.0324,0.013523,0.002678,0.000431,0.004819
80452000,0.0324,0.013523,0.002678,0.000431,0.005054
80453000,0.0324,0.013523,0.002678,0.000431,0.005406
80454000,0.0324,0.013523,0.002678,0.000431,0.005524
80455000,0.0324,0.013523,0.002678,0.000431,0.004819
80456000,0.0324,0.013523,0.002678,0.000431,0.005289
80457000,0.0324,0.013523,0.002678,0.000431,0.004936
80458000,0.0324,0.013523,0.002678,0.000431,0.006699
80459000,0.0324,0.013523,0.002678,0.000431,0.003291
80460000,0.0324,0.013523,0.002678,0.000431,0.003643
80461000,0.0324,0.013523,0.002678,0.000431,0.003408
80462000,0.0324,0.013523,0.002678,0.000431,0.003526
80463000,0.0324,0.013523,0.002678,0.000431,0.003526
80464000,0.0324,0.013523,0.002678,0.000431,0.003408
80465000,0.0324,0.013523,0.002678,0.000431,0.004701
80466000,0.0324,0.013523,0.002678,0.000431,0.002116
80467000,0.0324,0.013523,0.002678,0.000431,0.002821
80468000,0.0324,0.013523,0.002678,0.000431,0.002821
80469000,0.0324,0.013523,0.002678,0.000431,0.002351
80470000,0.0324,0.013523,0.002678,0.000431,0.002821
80471000,0.0324,0.013523,0.002678,0.000431,0.002351
80472000,0.0324,0.013523,0.002678,0.000431,0.002703
80473000,0.0324,0.013523,0.002678,0.000431,0.002586
80474000,0.0324,0.013523,0.002678,0.000431,0.002703
80475000,0.0324,0.013523,0.002678,0.000431,0.002468
80476000,0.0324,0.013523,0.002678,0.000431,0.002821
80477000,0.0324,0.013523,0.002678,0.000431,0.002586
80478000,0.0324,0.013523,0.002678,0.000431,0.002703
80479000,0.0324,0.013523,0.002678,0.000431,0.002586
80480000,0.0324,0.013523,0.002678,0.000431,0.002586
80481000,0.0324,0.013523,0.002678,0.000431,0.002586
80482000,0.0324,0.013523,0.002678,0.000431,0.002703
80483000,0.0324,0.013523,0.002678,0.000431,0.002821
80484000,0.0324,0.013523,0.002678,0.000431,0.002351
80485000,0.0324,0.013523,0.002678,0.000431,0.002821
80486000,0.0324,0.013523,0.002678,0.000431,0.002468
80487000,0.0324,0.013523,0.002678,0.000431,0.002821
80488000,0.0324,0.013523,0.002678,0.000431,0.002586
80489000,0.0324,0.013523,0.002678,0.000431,0.002586
80490000,0.0324,0.013523,0.002678,0.000431,0.002468
80491000,0.0324,0.013523,0.002678,0.000431,0.002821
80492000,0.0324,0.013523,0.002678,0.000431,0.002821
80493000,0.0324,0.013523,0.002678,0.000431,0.002468
80494000,0.0324,0.013523,0.002678,0.000431,0.002821
80495000,0.0324,0.013523,0.002678,0.000431,0.002233
80496000,0.0324,0.013523,0.002678,0.000431,0.002938
80497000,0.0324,0.013523,0.002678,0.000431,0.002468
80498000,0.0324,0.013523,0.002678,0.000431,0.002703
80499000,0.0324,0.013523,0.002678,0.000431,0.002468
80500000,0.0324,0.013523,0.002678,0.000431,0.002586
80501000,0.0324,0.013523,0.002678,0.000431,0.002586
80502000,0.0324,0.013523,0.002678,0.000431,0.002468
80503000,0.0324,0.013523,0.002678,0.000431,0.002938
80504000,0.0324,0.013523,0.002678,0.000431,0.002233
80505000,0.0324,0.013523,0.002678,0.000431,0.002821
80506000,0.0324,0.013523,0.002678,0.000431,0.002821
80507000,0.0324,0.013523,0.002678,0.000431,0.002468
80508000,0.0324,0.013523,0.002678,0.000431,0.002703
80509000,0.0324,0.013523,0.002678,0.000431,0.002586
80510000,0.0324,0.013523,0.002678,0.000431,0.002586
80511000,0.0324,0.013523,0.002678,0.000431,0.002703
80512000,0.0324,0.013523,0.002678,0.000431,0.002703
80513000,0.0324,0.013523,0.002678,0.000431,0.002468
80514000,0.0324,0.013523,0.002678,0.000431,0.002821
80515000,0.0324,0.013523,0.002678,0.000431,0.002586
80516000,0.0324,0.013523,0.002678,0.000431,0.002703
80517000,0.0324,0.013523,0.002678,0.000431,0.002351
80518000,0.0324,0.013523,0.002678,0.000431,0.002703
80519000,0.0324,0.013523,0.002678,0.000431,0.002821
80520000,0.0324,0.013523,0.002678,0.000431,0.002351
80521000,0.0324,0.013523,0.002678,0.000431,0.002821
80522000,0.0324,0.013523,0.002678,0.000431,0.002233
80523000,0.0324,0.013523,0.002678,0.000431,0.002938
80524000,0.0324,0.013523,0.002678,0.000431,0.002468
80525000,0.0324,0.013523,0.002678,0.000431,0.002703
80526000,0.0324,0.013523,0.002678,0.000431,0.002703
80527000,0.0324,0.013523,0.002678,0.000431,0.002468
80528000,0.0324,0.013523,0.002678,0.000431,0.002351
80529000,0.0324,0.013523,0.002678,0.000431,0.002938
80530000,0.0324,0.013523,0.002678,0.000431,0.002821
80531000,0.0324,0.013523,0.002678,0.000431,0.002468
80532000,0.0324,0.013523,0.002678,0.000431,0.002703
80533000,0.0324,0.013523,0.002678,0.000431,0.003761
80534000,0.0324,0.013523,0.002678,0.000431,0.001998
80535000,0.0324,0.013523,0.002678,0.000431,0.001645
80536000,0.0324,0.013523,0.002678,0.000431,0.001880
80537000,0.0324,0.013523,0.002678,0.000431,0.001645
80538000,0.0324,0.013523,0.002678,0.000431,0.001763
80539000,0.0324,0.013523,0.002678,0.000431,0.001998
80540000,0.0324,0.013523,0.002678,0.000431,0.001410
80541000,0.0324,0.013523,0.002678,0.000431,0.002116
80542000,0.0324,0.013523,0.002678,0.000431,0.001410
80543000,0.0324,0.013523,0.002678,0.000431,0.001880
80544000,0.0324,0.013523,0.002678,0.000431,0.001880
80545000,0.0324,0.013523,0.002678,0.000431,0.001645
80546000,0.0324,0.013523,0.002678,0.000431,0.001880
80547000,0.0324,0.013523,0.002678,0.000431,0.001645
80548000,0.0324,0.013523,0.002678,0.000431,0.001880
80549000,0.0324,0.013523,0.002678,0.000431,0.001645
80550000,0.0324,0.013523,0.002678,0.000431,0.001880
80551000,0.0324,0.013523,0.002678,0.000431,0.001528
80552000,0.0324,0.013523,0.002678,0.000431,0.001998
80553000,0.0324,0.013523,0.002678,0.000431,0.001763
80554000,0.0324,0.013523,0.002678,0.000431,0.001763
80555000,0.0324,0.013523,0.002678,0.000431,0.001645
80556000,0.0324,0.013523,0.002678,0.000431,0.001763
80557000,0.0324,0.013523,0.002678,0.000431,0.001998
80558000,0.0324,0.013523,0.002678,0.000431,0.001528
80559000,0.0324,0.013523,0.002678,0.000431,0.001998
80560000,0.0324,0.013523,0.002678,0.000431,0.001645
80561000,0.0324,0.013523,0.002678,0.000431,0.001763
80562000,0.0324,0.013523,0.002678,0.000431,0.001763
80563000,0.0324,0.013523,0.002678,0.000431,0.001763
80564000,0.0324,0.013523,0.002678,0.000431,0.001763
80565000,0.0324,0.013523,0.002678,0.000431,0.001645
80566000,0.0324,0.013523,0.002678,0.000431,0.001645
80567000,0.0324,0.013523,0.002678,0.000431,0.001880
80568000,0.0324,0.013523,0.002678,0.000431,0.001998
80569000,0.0324,0.013523,0.002678,0.000431,0.001528
80570000,0.0324,0.013523,0.002678,0.000431,0.001998
80571000,0.0324,0.013523,0.002678,0.000431,0.002351
80572000,0.0324,0.013523,0.002678,0.000431,0.359871
80573000,0.0324,0.013523,0.002678,0.000431,0.687657
80574000,0.0324,0.013523,0.002678,0.000431,0.153139
80575000,0.0324,0.013523,0.002678,0.000431,0.133042
80576000,0.0324,0.013523,0.002678,0.000431,0.148438
80577000,0.0324,0.013523,0.002678,0.000431,0.596926
80578000,0.0324,0.013523,0.002678,0.000431,0.230238
80579000,0.0324,0.013523,0.002678,0.000431,0.315916
80580000,0.0324,0.013523,0.002678,0.000431,0.258444
80581000,0.0324,0.013523,0.002678,0.000431,0.143502
80582000,0.0324,0.013523,0.002678,0.000431,0.143267
80583000,0.0324,0.013523,0.002678,0.000431,0.188633
80584000,0.0324,0.013523,0.002678,0.000431,0.415697
80585000,0.0324,0.013523,0.002678,0.000431,0.095785
80586000,0.0324,0.013523,0.002678,0.000431,0.076863
80587000,0.0324,0.013523,0.002678,0.000431,0.072985
80588000,0.0324,0.013523,0.002678,0.000431,0.074160
80589000,0.0324,0.013523,0.002678,0.000431,0.054651
80590000,0.0324,0.013523,0.002678,0.000431,0.045836
80591000,0.0324,0.013523,0.002678,0.000431,0.042075
80592000,0.0324,0.013523,0.002678,0.000431,0.039842
80593000,0.0324,0.013523,0.002678,0.000431,0.035141
80594000,0.0324,0.013523,0.002678,0.000431,0.038314
80595000,0.0324,0.013523,0.002678,0.000431,0.030440
80596000,0.0324,0.013523,0.002678,0.000431,0.019627
80597000,0.0324,0.013523,0.002678,0.000431,0.026209
80598000,0.0324,0.013523,0.002678,0.000431,0.015279
80599000,0.0324,0.013523,0.002678,0.000431,0.017747
80600000,0.0324,0.013523,0.002678,0.000431,0.015044
80601000,0.0324,0.013523,0.002678,0.000431,0.011400
80602000,0.0324,0.013523,0.002678,0.000431,0.010225
80603000,0.0324,0.013523,0.002678,0.000431,0.010578
80604000,0.0324,0.013523,0.002678,0.000431,0.008815
80605000,0.0324,0.013523,0.002678,0.000431,0.008580
80606000,0.0324,0.013523,0.002678,0.000431,0.009520
80607000,0.0324,0.013523,0.002678,0.000431,0.010107
80608000,0.0324,0.013523,0.002678,0.000431,0.009285
80609000,0.0324,0.013523,0.002678,0.000431,0.005524
80610000,0.0324,0.013523,0.002678,0.000431,0.005641
80611000,0.0324,0.013523,0.002678,0.000431,0.004936
80612000,0.0324,0.013523,0.002678,0.000431,0.002468
80613000,0.0324,0.013523,0.002678,0.000431,0.002351
80614000,0.0324,0.013523,0.002678,0.000431,0.002821
80615000,0.0324,0.013523,0.002678,0.000431,0.002233
80616000,0.0324,0.013523,0.002678,0.000431,0.002468
80617000,0.0324,0.013523,0.002678,0.000431,0.002351
80618000,0.0324,0.013523,0.002678,0.000431,0.002586
80619000,0.0324,0.013523,0.002678,0.000431,0.002468
80620000,0.0324,0.013523,0.002678,0.000431,0.002468
80621000,0.0324,0.013523,0.002678,0.000431,0.002351
80622000,0.0324,0.013523,0.002678,0.000431,0.002468
80623000,0.0324,0.013523,0.002678,0.000431,0.002351
80624000,0.0324,0.013523,0.002678,0.000431,0.002468
80625000,0.0324,0.013523,0.002678,0.000431,0.002821
80626000,0.0324,0.013523,0.002678,0.000431,0.001998
80627000,0.0324,0.013523,0.002678,0.000431,0.002703
80628000,0.0324,0.013523,0.002678,0.000431,0.002233
80629000,0.0324,0.013523,0.002678,0.000431,0.002703
80630000,0.0324,0.013523,0.002678,0.000431,0.002468
80631000,0.0324,0.013523,0.002678,0.000431,0.002233
80632000,0.0324,0.013523,0.002678,0.000431,0.002821
80633000,0.0324,0.013523,0.002678,0.000431,0.002233
80634000,0.0324,0.013523,0.002678,0.000431,0.002468
80635000,0.0324,0.013523,0.002678,0.000431,0.002586
80636000,0.0324,0.013523,0.002678,0.000431,0.002351
80637000,0.0324,0.013523,0.002678,0.000431,0.002468
80638000,0.0324,0.013523,0.002678,0.000431,0.002468
80639000,0.0324,0.013523,0.002678,0.000431,0.002351
80640000,0.0324,0.013523,0.002678,0.000431,0.002586
80641000,0.0324,0.013523,0.002678,0.000431,0.002233
80642000,0.0324,0.013523,0.002678,0.000431,0.002468
80643000,0.0324,0.013523,0.002678,0.000431,0.002586
80644000,0.0324,0.013523,0.002678,0.000431,0.002233
80645000,0.0324,0.013523,0.002678,0.000431,0.002821
80646000,0.0324,0.013523,0.002678,0.000431,0.001998
80647000,0.0324,0.013523,0.002678,0.000431,0.002821
80648000,0.0324,0.013523,0.002678,0.000431,0.002351
80649000,0.0324,0.013523,0.002678,0.000431,0.002351
80650000,0.0324,0.013523,0.002678,0.000431,0.002586
80651000,0.0324,0.013523,0.002678,0.000431,0.002351
80652000,0.0324,0.013523,0.002678,0.000431,0.002821
80653000,0.0324,0.013523,0.002678,0.000431,0.002116
80654000,0.0324,0.013523,0.002678,0.000431,0.002586
80655000,0.0324,0.013523,0.002678,0.000431,0.002586
80656000,0.0324,0.013523,0.002678,0.000431,0.002233
80657000,0.0324,0.013523,0.002678,0.000431,0.002468
80658000,0.0324,0.013523,0.002678,0.000431,0.002586
80659000,0.0324,0.013523,0.002678,0.000431,0.002351
80660000,0.0324,0.013523,0.002678,0.000431,0.002468
80661000,0.0324,0.013523,0.002678,0.000431,0.002468
80662000,0.0324,0.013523,0.002678,0.000431,0.002351
80663000,0.0324,0.013523,0.002678,0.000431,0.002703
80664000,0.0324,0.013523,0.002678,0.000431,0.002116
80665000,0.0324,0.013523,0.002678,0.000431,0.002703
80666000,0.0324,0.013523,0.002678,0.000431,0.002233
80667000,0.0324,0.013523,0.002678,0.000431,0.002586
80668000,0.0324,0.013523,0.002678,0.000431,0.002468
80669000,0.0324,0.013523,0.002678,0.000431,0.002351
80670000,0.0324,0.013523,0.002678,0.000431,0.002821
80671000,0.0324,0.013523,0.002678,0.000431,0.002116
80672000,0.0324,0.013523,0.002678,0.000431,0.002586
80673000,0.0324,0.013523,0.002678,0.000431,0.002586
80674000,0.0324,0.013523,0.002678,0.000431,0.002351
80675000,0.0324,0.013523,0.002678,0.000431,0.002468
80676000,0.0324,0.013523,0.002678,0.000431,0.003643
80677000,0.0324,0.013523,0.002678,0.000431,0.001528
80678000,0.0324,0.013523,0.002678,0.000431,0.001645
80679000,0.0324,0.013523,0.002678,0.000431,0.001410
80680000,0.0324,0.013523,0.002678,0.000431,0.001645
80681000,0.0324,0.013523,0.002678,0.000431,0.001645
80682000,0.0324,0.013523,0.002678,0.000431,0.001410
80683000,0.0324,0.013523,0.002678,0.000431,0.001880
80684000,0.0324,0.013523,0.002678,0.000431,0.001410
80685000,0.0324,0.013523,0.002678,0.000431,0.001645
80686000,0.0324,0.013523,0.002678,0.000431,0.001410
80687000,0.0324,0.013523,0.002678,0.000431,0.001645
80688000,0.0324,0.013523,0.002678,0.000431,0.001880
80689000,0.0324,0.013523,0.002678,0.000431,0.001175
80690000,0.0324,0.013523,0.002678,0.000431,0.001880
80691000,0.0324,0.013523,0.002678,0.000431,0.001410
80692000,0.0324,0.013523,0.002678,0.000431,0.001645
80693000,0.0324,0.013523,0.002678,0.000431,0.001645
80694000,0.0324,0.013523,0.002678,0.000431,0.001410
80695000,0.0324,0.013523,0.002678,0.000431,0.001645
80696000,0.0324,0.013523,0.002678,0.000431,0.001645
80697000,0.0324,0.013523,0.002678,0.000431,0.001410
80698000,0.0324,0.013523,0.002678,0.000431,0.001645
80699000,0.0324,0.013523,0.002678,0.000431,0.001645
80700000,0.0324,0.013523,0.002678,0.000431,0.001410
80701000,0.0324,0.013523,0.002678,0.000431,0.001880
80702000,0.0324,0.013523,0.002678,0.000431,0.001410
80703000,0.0324,0.013523,0.002678,0.000431,0.001645
80704000,0.0324,0.013523,0.002678,0.000431,0.001293
80705000,0.0324,0.013523,0.002678,0.000431,0.001763
80706000,0.0324,0.013523,0.002678,0.000431,0.001880
80707000,0.0324,0.013523,0.002678,0.000431,0.001175
80708000,0.0324,0.013523,0.002678,0.000431,0.001880
80709000,0.0324,0.013523,0.002678,0.000431,0.001293
80710000,0.0324,0.013523,0.002678,0.000431,0.001763
80711000,0.0324,0.013523,0.002678,0.000431,0.001645
80712000,0.0324,0.013523,0.002678,0.000431,0.001410
80713000,0.0324,0.013523,0.002678,0.000431,0.001645
80714000,0.0324,0.013523,0.002678,0.000431,0.001528
80715000,0.0324,0.013523,0.002678,0.000431,0.001528
80716000,0.0324,0.013523,0.002678,0.000431,0.001645
80717000,0.0324,0.013523,0.002678,0.000431,0.001645
80718000,0.0324,0.013523,0.002678,0.000431,0.001410
80719000,0.0324,0.013523,0.002678,0.000431,0.001645
80720000,0.0324,0.013523,0.002678,0.000431,0.001645
80721000,0.0324,0.013523,0.002678,0.000431,0.001645
80722000,0.0324,0.013523,0.002678,0.000431,0.001410
80723000,0.0324,0.013523,0.002678,0.000431,0.001645
80724000,0.0324,0.013523,0.002678,0.000431,0.001410
80725000,0.0324,0.013523,0.002678,0.000431,0.001645
80726000,0.0324,0.013523,0.002678,0.000431,0.001880
80727000,0.0324,0.013523,0.002678,0.000431,0.001175
80728000,0.0324,0.013523,0.002678,0.000431,0.001880
80729000,0.0324,0.013523,0.002678,0.000431,0.001410
80730000,0.0324,0.013523,0.002678,0.000431,0.001645
80731000,0.0324,0.013523,0.002678,0.000431,0.001645
80732000,0.0324,0.013523,0.002678,0.000431,0.001410
80733000,0.0324,0.013523,0.002678,0.000431,0.001880
80734000,0.0324,0.013523,0.002678,0.000431,0.001410
80735000,0.0324,0.013523,0.002678,0.000431,0.001645
80736000,0.0324,0.013523,0.002678,0.000431,0.001645
80737000,0.0324,0.013523,0.002678,0.000431,0.001410
80738000,0.0324,0.013523,0.002678,0.000431,0.001645
80739000,0.0324,0.013523,0.002678,0.000431,0.001645
80740000,0.0324,0.013523,0.002678,0.000431,0.001410
80741000,0.0324,0.013523,0.002678,0.000431,0.001645
80742000,0.0324,0.013523,0.002678,0.000431,0.001645
80743000,0.0324,0.013523,0.002678,0.000431,0.001410
80744000,0.0324,0.013523,0.002678,0.000431,0.001880
80745000,0.0324,0.013523,0.002678,0.000431,0.001410
80746000,0.0324,0.013523,0.002678,0.000431,0.001645
80747000,0.0324,0.013523,0.002678,0.000431,0.001293
80748000,0.0324,0.013523,0.002678,0.000431,0.001763
80749000,0.0324,0.013523,0.002678,0.000431,0.001880
80750000,0.0324,0.013523,0.002678,0.000431,0.001410
80751000,0.0324,0.013523,0.002678,0.000431,0.002468
80752000,0.0324,0.013523,0.002678,0.000431,0.412524
80753000,0.0324,0.013523,0.002678,0.000431,0.707990
80754000,0.0324,0.013523,0.002678,0.000431,0.140329
80755000,0.0324,0.013523,0.002678,0.000431,0.133512
80756000,0.0324,0.013523,0.002678,0.000431,0.270197
80757000,0.0324,0.013523,0.002678,0.000431,0.513951
80758000,0.0324,0.013523,0.002678,0.000431,0.259502
80759000,0.0324,0.013523,0.002678,0.000431,0.331547
80760000,0.0324,0.013523,0.002678,0.000431,0.157018
80761000,0.0324,0.013523,0.002678,0.000431,0.145852
80762000,0.0324,0.013523,0.002678,0.000431,0.107068
80763000,0.0324,0.013523,0.002678,0.000431,0.371624
80764000,0.0324,0.013523,0.002678,0.000431,0.279129
80765000,0.0324,0.013523,0.002678,0.000431,0.098606
80766000,0.0324,0.013523,0.002678,0.000431,0.091084
80767000,0.0324,0.013523,0.002678,0.000431,0.088146
80768000,0.0324,0.013523,0.002678,0.000431,0.069342
80769000,0.0324,0.013523,0.002678,0.000431,0.055943
80770000,0.0324,0.013523,0.002678,0.000431,0.045131
80771000,0.0324,0.013523,0.002678,0.000431,0.042310
80772000,0.0324,0.013523,0.002678,0.000431,0.047129
80773000,0.0324,0.013523,0.002678,0.000431,0.030440
80774000,0.0324,0.013523,0.002678,0.000431,0.028442
80775000,0.0324,0.013523,0.002678,0.000431,0.027854
80776000,0.0324,0.013523,0.002678,0.000431,0.027502
80777000,0.0324,0.013523,0.002678,0.000431,0.028442
80778000,0.0324,0.013523,0.002678,0.000431,0.028207
80779000,0.0324,0.013523,0.002678,0.000431,0.029029
80780000,0.0324,0.013523,0.002678,0.000431,0.022800
80781000,0.0324,0.013523,0.002678,0.000431,0.016101
80782000,0.0324,0.013523,0.002678,0.000431,0.013986
80783000,0.0324,0.013523,0.002678,0.000431,0.013163
80784000,0.0324,0.013523,0.002678,0.000431,0.013163
80785000,0.0324,0.013523,0.002678,0.000431,0.011988
80786000,0.0324,0.013523,0.002678,0.000431,0.011988
80787000,0.0324,0.013523,0.002678,0.000431,0.012340
80788000,0.0324,0.013523,0.002678,0.000431,0.011988
80789000,0.0324,0.013523,0.002678,0.000431,0.012928
80790000,0.0324,0.013523,0.002678,0.000431,0.012105
80791000,0.0324,0.013523,0.002678,0.000431,0.012576
80792000,0.0324,0.013523,0.002678,0.000431,0.011753
80793000,0.0324,0.013523,0.002678,0.000431,0.013281
80794000,0.0324,0.013523,0.002678,0.000431,0.011753
80795000,0.0324,0.013523,0.002678,0.000431,0.012458
80796000,0.0324,0.013523,0.002678,0.000431,0.012105
80797000,0.0324,0.013523,0.002678,0.000431,0.011988
80798000,0.0324,0.013523,0.002678,0.000431,0.014221
80799000,0.0324,0.013523,0.002678,0.000431,0.011518
80800000,0.0324,0.013523,0.002678,0.000431,0.011753
80801000,0.0324,0.013523,0.002678,0.000431,0.010695
80802000,0.0324,0.013523,0.002678,0.000431,0.011988
80803000,0.0324,0.013523,0.002678,0.000431,0.010813
80804000,0.0324,0.013523,0.002678,0.000431,0.011753
80805000,0.0324,0.013523,0.002678,0.000431,0.011753
80806000,0.0324,0.013523,0.002678,0.000431,0.010695
80807000,0.0324,0.013523,0.002678,0.000431,0.011165
80808000,0.0324,0.013523,0.002678,0.000431,0.010342
80809000,0.0324,0.013523,0.002678,0.000431,0.010930
80810000,0.0324,0.013523,0.002678,0.000431,0.012223
80811000,0.0324,0.013523,0.002678,0.000431,0.010342
80812000,0.0324,0.013523,0.002678,0.000431,0.008932
80813000,0.0324,0.013523,0.002678,0.000431,0.015044
80814000,0.0324,0.013523,0.002678,0.000431,0.007522
80815000,0.0324,0.013523,0.002678,0.000431,0.007404
80816000,0.0324,0.013523,0.002678,0.000431,0.007639
80817000,0.0324,0.013523,0.002678,0.000431,0.007052
80818000,0.0324,0.013523,0.002678,0.000431,0.008345
80819000,0.0324,0.013523,0.002678,0.000431,0.006817
80820000,0.0324,0.013523,0.002678,0.000431,0.007874
80821000,0.0324,0.013523,0.002678,0.000431,0.007992
80822000,0.0324,0.013523,0.002678,0.000431,0.007169
80823000,0.0324,0.013523,0.002678,0.000431,0.007639
80824000,0.0324,0.013523,0.002678,0.000431,0.008462
80825000,0.0324,0.013523,0.002678,0.000431,0.007757
80826000,0.0324,0.013523,0.002678,0.000431,0.006582
80827000,0.0324,0.013523,0.002678,0.000431,0.006817
80828000,0.0324,0.013523,0.002678,0.000431,0.007052
80829000,0.0324,0.013523,0.002678,0.000431,0.006817
80830000,0.0324,0.013523,0.002678,0.000431,0.006229
80831000,0.0324,0.013523,0.002678,0.000431,0.007052
80832000,0.0324,0.013523,0.002678,0.000431,0.006817
80833000,0.0324,0.013523,0.002678,0.000431,0.006699
80834000,0.0324,0.013523,0.002678,0.000431,0.006582
80835000,0.0324,0.013523,0.002678,0.000431,0.006817
80836000,0.0324,0.013523,0.002678,0.000431,0.007169
80837000,0.0324,0.013523,0.002678,0.000431,0.008227
80838000,0.0324,0.013523,0.002678,0.000431,0.004936
80839000,0.0324,0.013523,0.002678,0.000431,0.005289
80840000,0.0324,0.013523,0.002678,0.000431,0.005171
80841000,0.0324,0.013523,0.002678,0.000431,0.004701
80842000,0.0324,0.013523,0.002678,0.000431,0.005289
80843000,0.0324,0.013523,0.002678,0.000431,0.005289
80844000,0.0324,0.013523,0.002678,0.000431,0.005054
80845000,0.0324,0.013523,0.002678,0.000431,0.005054
80846000,0.0324,0.013523,0.002678,0.000431,0.004936
80847000,0.0324,0.013523,0.002678,0.000431,0.005289
80848000,0.0324,0.013523,0.002678,0.000431,0.005054
80849000,0.0324,0.013523,0.002678,0.000431,0.004819
80850000,0.0324,0.013523,0.002678,0.000431,0.005524
80851000,0.0324,0.013523,0.002678,0.000431,0.004936
80852000,0.0324,0.013523,0.002678,0.000431,0.005054
80853000,0.0324,0.013523,0.002678,0.000431,0.005171
80854000,0.0324,0.013523,0.002678,0.000431,0.005171
80855000,0.0324,0.013523,0.002678,0.000431,0.004936
80856000,0.0324,0.013523,0.002678,0.000431,0.004936
80857000,0.0324,0.013523,0.002678,0.000431,0.005406
80858000,0.0324,0.013523,0.002678,0.000431,0.004936
80859000,0.0324,0.013523,0.002678,0.000431,0.005171
80860000,0.0324,0.013523,0.002678,0.000431,0.005054
80861000,0.0324,0.013523,0.002678,0.000431,0.010813
80862000,0.0324,0.013523,0.002678,0.000431,0.003056
80863000,0.0324,0.013523,0.002678,0.000431,0.003408
80864000,0.0324,0.013523,0.002678,0.000431,0.003408
80865000,0.0324,0.013523,0.002678,0.000431,0.003173
80866000,0.0324,0.013523,0.002678,0.000431,0.003526
80867000,0.0324,0.013523,0.002678,0.000431,0.003291
80868000,0.0324,0.013523,0.002678,0.000431,0.003056
80869000,0.0324,0.013523,0.002678,0.000431,0.003291
80870000,0.0324,0.013523,0.002678,0.000431,0.003291
80871000,0.0324,0.013523,0.002678,0.000431,0.003173
80872000,0.0324,0.013523,0.002678,0.000431,0.003291
80873000,0.0324,0.013523,0.002678,0.000431,0.003408
80874000,0.0324,0.013523,0.002678,0.000431,0.003056
80875000,0.0324,0.013523,0.002678,0.000431,0.003526
80876000,0.0324,0.013523,0.002678,0.000431,0.003173
80877000,0.0324,0.013523,0.002678,0.000431,0.003291
80878000,0.0324,0.013523,0.002678,0.000431,0.002821
80879000,0.0324,0.013523,0.002678,0.000431,0.003643
80880000,0.0324,0.013523,0.002678,0.000431,0.003643
80881000,0.0324,0.013523,0.002678,0.000431,0.002703
80882000,0.0324,0.013523,0.002678,0.000431,0.003761
80883000,0.0324,0.013523,0.002678,0.000431,0.002703
80884000,0.0324,0.013523,0.002678,0.000431,0.003643
80885000,0.0324,0.013523,0.002678,0.000431,0.003291
80886000,0.0324,0.013523,0.002678,0.000431,0.003056
80887000,0.0324,0.013523,0.002678,0.000431,0.003761
80888000,0.0324,0.013523,0.002678,0.000431,0.002821
80889000,0.0324,0.013523,0.002678,0.000431,0.003526
80890000,0.0324,0.013523,0.002678,0.000431,0.003408
80891000,0.0324,0.013523,0.002678,0.000431,0.002938
80892000,0.0324,0.013523,0.002678,0.000431,0.003408
80893000,0.0324,0.013523,0.002678,0.000431,0.003173
80894000,0.0324,0.013523,0.002678,0.000431,0.003173
80895000,0.0324,0.013523,0.002678,0.000431,0.003408
80896000,0.0324,0.013523,0.002678,0.000431,0.003056
80897000,0.0324,0.013523,0.002678,0.000431,0.003291
80898000,0.0324,0.013523,0.002678,0.000431,0.003408
80899000,0.0324,0.013523,0.002678,0.000431,0.003291
80900000,0.0324,0.013523,0.002678,0.000431,0.003408
80901000,0.0324,0.013523,0.002678,0.000431,0.003056
80902000,0.0324,0.013523,0.002678,0.000431,0.003291
80903000,0.0324,0.013523,0.002678,0.000431,0.003173
80904000,0.0324,0.013523,0.002678,0.000431,0.003291
80905000,0.0324,0.013523,0.002678,0.000431,0.003643
80906000,0.0324,0.013523,0.002678,0.000431,0.002821
80907000,0.0324,0.013523,0.002678,0.000431,0.003526
80908000,0.0324,0.013523,0.002678,0.000431,0.003173
80909000,0.0324,0.013523,0.002678,0.000431,0.003291
80910000,0.0324,0.013523,0.002678,0.000431,0.003408
80911000,0.0324,0.013523,0.002678,0.000431,0.002821
80912000,0.0324,0.013523,0.002678,0.000431,0.003761
80913000,0.0324,0.013523,0.002678,0.000431,0.002821
80914000,0.0324,0.013523,0.002678,0.000431,0.003291
80915000,0.0324,0.013523,0.002678,0.000431,0.003291
80916000,0.0324,0.013523,0.002678,0.000431,0.002821
80917000,0.0324,0.013523,0.002678,0.000431,0.003291
80918000,0.0324,0.013523,0.002678,0.000431,0.003291
80919000,0.0324,0.013523,0.002678,0.000431,0.003291
80920000,0.0324,0.013523,0.002678,0.000431,0.002821
80921000,0.0324,0.013523,0.002678,0.000431,0.003291
80922000,0.0324,0.013523,0.002678,0.000431,0.002821
80923000,0.0324,0.013523,0.002678,0.000431,0.003761
80924000,0.0324,0.013523,0.002678,0.000431,0.002821
80925000,0.0324,0.013523,0.002678,0.000431,0.003291
80926000,0.0324,0.013523,0.002678,0.000431,0.002586
80927000,0.0324,0.013523,0.002678,0.000431,0.003526
80928000,0.0324,0.013523,0.002678,0.000431,0.003761
80929000,0.0324,0.013523,0.002678,0.000431,0.002351
80930000,0.0324,0.013523,0.002678,0.000431,0.003761
80931000,0.0324,0.013523,0.002678,0.000431,0.002586
80932000,0.0324,0.013523,0.002678,0.000431,0.003526
80933000,0.0324,0.013523,0.002678,0.000431,0.003291
80934000,0.0324,0.013523,0.002678,0.000431,0.002821
80935000,0.0324,0.013523,0.002678,0.000431,0.003761
80936000,0.0324,0.013523,0.002678,0.000431,0.002586
80937000,0.0324,0.013523,0.002678,0.000431,0.003526
80938000,0.0324,0.013523,0.002678,0.000431,0.003291
80939000,0.0324,0.013523,0.002678,0.000431,0.002821
80940000,0.0324,0.013523,0.002678,0.000431,0.003291
80941000,0.0324,0.013523,0.002678,0.000431,0.003056
80942000,0.0324,0.013523,0.002678,0.000431,0.003056
80943000,0.0324,0.013523,0.002678,0.000431,0.003291
80944000,0.0324,0.013523,0.002678,0.000431,0.003291
80945000,0.0324,0.013523,0.002678,0.000431,0.002821
80946000,0.0324,0.013523,0.002678,0.000431,0.003291
80947000,0.0324,0.013523,0.002678,0.000431,0.003291
80948000,0.0324,0.013523,0.002678,0.000431,0.003291
80949000,0.0324,0.013523,0.002678,0.000431,0.002821
80950000,0.0324,0.013523,0.002678,0.000431,0.003291
80951000,0.0324,0.013523,0.002678,0.000431,0.003291
80952000,0.0324,0.013523,0.002678,0.000431,0.002821
80953000,0.0324,0.013523,0.002678,0.000431,0.003761
80954000,0.0324,0.013523,0.002678,0.000431,0.002821
80955000,0.0324,0.013523,0.002678,0.000431,0.003291
80956000,0.0324,0.013523,0.002678,0.000431,0.002938
80957000,0.0324,0.013523,0.002678,0.000431,0.003173
80958000,0.0324,0.013523,0.002678,0.000431,0.003761
80959000,0.0324,0.013523,0.002678,0.000431,0.002351
80960000,0.0324,0.013523,0.002678,0.000431,0.003761
80961000,0.0324,0.013523,0.002678,0.000431,0.002938
80962000,0.0324,0.013523,0.002678,0.000431,0.003173
80963000,0.0324,0.013523,0.002678,0.000431,0.003291
80964000,0.0324,0.013523,0.002678,0.000431,0.002821
80965000,0.0324,0.013523,0.002678,0.000431,0.003526
80966000,0.0324,0.013523,0.002678,0.000431,0.003056
80967000,0.0324,0.013523,0.002678,0.000431,0.003291
80968000,0.0324,0.013523,0.002678,0.000431,0.003056
80969000,0.0324,0.013523,0.002678,0.000431,0.003056
80970000,0.0324,0.013523,0.002678,0.000431,0.003291
80971000,0.0324,0.013523,0.002678,0.000431,0.003291
80972000,0.0324,0.013523,0.002678,0.000431,0.002821
80973000,0.0324,0.013523,0.002678,0.000431,0.003291
80974000,0.0324,0.013523,0.002678,0.000431,0.004819
80975000,0.0324,0.013523,0.002678,0.000431,0.000823
80976000,0.0324,0.013523,0.002678,0.000431,0.000823
80977000,0.0324,0.013523,0.002678,0.000431,0.000823
80978000,0.0324,0.013523,0.002678,0.000431,0.013868
80979000,0.0324,0.013523,0.002678,0.000431,0.585643
80980000,0.0324,0.013523,0.002678,0.000431,0.583645
80981000,0.0324,0.013523,0.002678,0.000431,0.137390
80982000,0.0324,0.013523,0.002678,0.000431,0.134922
80983000,0.0324,0.013523,0.002678,0.000431,0.581529
80984000,0.0324,0.013523,0.002678,0.000431,0.270550
80985000,0.0324,0.013523,0.002678,0.000431,0.254801
80986000,0.0324,0.013523,0.002678,0.000431,0.304280
80987000,0.0324,0.013523,0.002678,0.000431,0.141034
80988000,0.0324,0.013523,0.002678,0.000431,0.171239
80989000,0.0324,0.013523,0.002678,0.000431,0.132337
80990000,0.0324,0.013523,0.002678,0.000431,0.511953
80991000,0.0324,0.013523,0.002678,0.000431,0.196037
80992000,0.0324,0.013523,0.002678,0.000431,0.152199
80993000,0.0324,0.013523,0.002678,0.000431,0.136450
80994000,0.0324,0.013523,0.002678,0.000431,0.120231
80995000,0.0324,0.013523,0.002678,0.000431,0.098959
80996000,0.0324,0.013523,0.002678,0.000431,0.077216
80997000,0.0324,0.013523,0.002678,0.000431,0.064053
80998000,0.0324,0.013523,0.002678,0.000431,0.053123
80999000,0.0324,0.013523,0.002678,0.000431,0.036669
