Cycle,Area(mm^2),PeakDynamic(W),SubthresholdLeakage(W),GateLeakage(W),RunTimeDynamic(W)
70000000,0.0324,0.013523,0.002678,0.000431,0.000940
70001000,0.0324,0.013523,0.002678,0.000431,0.000940
70002000,0.0324,0.013523,0.002678,0.000431,0.000705
70003000,0.0324,0.013523,0.002678,0.000431,0.000940
70004000,0.0324,0.013523,0.002678,0.000431,0.000940
70005000,0.0324,0.013523,0.002678,0.000431,0.000823
70006000,0.0324,0.013523,0.002678,0.000431,0.000823
70007000,0.0324,0.013523,0.002678,0.000431,0.000940
70008000,0.0324,0.013523,0.002678,0.000431,0.000823
70009000,0.0324,0.013523,0.002678,0.000431,0.000940
70010000,0.0324,0.013523,0.002678,0.000431,0.000823
70011000,0.0324,0.013523,0.002678,0.000431,0.000940
70012000,0.0324,0.013523,0.002678,0.000431,0.000823
70013000,0.0324,0.013523,0.002678,0.000431,0.000823
70014000,0.0324,0.013523,0.002678,0.000431,0.000940
70015000,0.0324,0.013523,0.002678,0.000431,0.000940
70016000,0.0324,0.013523,0.002678,0.000431,0.000823
70017000,0.0324,0.013523,0.002678,0.000431,0.000823
70018000,0.0324,0.013523,0.002678,0.000431,0.000940
70019000,0.0324,0.013523,0.002678,0.000431,0.000940
70020000,0.0324,0.013523,0.002678,0.000431,0.000823
70021000,0.0324,0.013523,0.002678,0.000431,0.000823
70022000,0.0324,0.013523,0.002678,0.000431,0.000940
70023000,0.0324,0.013523,0.002678,0.000431,0.000940
70024000,0.0324,0.013523,0.002678,0.000431,0.000823
70025000,0.0324,0.013523,0.002678,0.000431,0.000823
70026000,0.0324,0.013523,0.002678,0.000431,0.000940
70027000,0.0324,0.013523,0.002678,0.000431,0.000823
70028000,0.0324,0.013523,0.002678,0.000431,0.000940
70029000,0.0324,0.013523,0.002678,0.000431,0.000823
70030000,0.0324,0.013523,0.002678,0.000431,0.000940
70031000,0.0324,0.013523,0.002678,0.000431,0.000823
70032000,0.0324,0.013523,0.002678,0.000431,0.000823
70033000,0.0324,0.013523,0.002678,0.000431,0.000940
70034000,0.0324,0.013523,0.002678,0.000431,0.000940
70035000,0.0324,0.013523,0.002678,0.000431,0.000823
70036000,0.0324,0.013523,0.002678,0.000431,0.000823
70037000,0.0324,0.013523,0.002678,0.000431,0.000705
70038000,0.0324,0.013523,0.002678,0.000431,0.000940
70039000,0.0324,0.013523,0.002678,0.000431,0.000940
70040000,0.0324,0.013523,0.002678,0.000431,0.000823
70041000,0.0324,0.013523,0.002678,0.000431,0.000823
70042000,0.0324,0.013523,0.002678,0.000431,0.000705
70043000,0.0324,0.013523,0.002678,0.000431,0.000940
70044000,0.0324,0.013523,0.002678,0.000431,0.000940
70045000,0.0324,0.013523,0.002678,0.000431,0.000705
70046000,0.0324,0.013523,0.002678,0.000431,0.000940
70047000,0.0324,0.013523,0.002678,0.000431,0.000823
70048000,0.0324,0.013523,0.002678,0.000431,0.000823
70049000,0.0324,0.013523,0.002678,0.000431,0.000940
70050000,0.0324,0.013523,0.002678,0.000431,0.000940
70051000,0.0324,0.013523,0.002678,0.000431,0.000823
70052000,0.0324,0.013523,0.002678,0.000431,0.000823
70053000,0.0324,0.013523,0.002678,0.000431,0.000940
70054000,0.0324,0.013523,0.002678,0.000431,0.000823
70055000,0.0324,0.013523,0.002678,0.000431,0.000940
70056000,0.0324,0.013523,0.002678,0.000431,0.000823
70057000,0.0324,0.013523,0.002678,0.000431,0.000940
70058000,0.0324,0.013523,0.002678,0.000431,0.000940
70059000,0.0324,0.013523,0.002678,0.000431,0.000705
70060000,0.0324,0.013523,0.002678,0.000431,0.000940
70061000,0.0324,0.013523,0.002678,0.000431,0.000940
70062000,0.0324,0.013523,0.002678,0.000431,0.000940
70063000,0.0324,0.013523,0.002678,0.000431,0.000705
70064000,0.0324,0.013523,0.002678,0.000431,0.000940
70065000,0.0324,0.013523,0.002678,0.000431,0.000940
70066000,0.0324,0.013523,0.002678,0.000431,0.000823
70067000,0.0324,0.013523,0.002678,0.000431,0.000823
70068000,0.0324,0.013523,0.002678,0.000431,0.000940
70069000,0.0324,0.013523,0.002678,0.000431,0.000940
70070000,0.0324,0.013523,0.002678,0.000431,0.000823
70071000,0.0324,0.013523,0.002678,0.000431,0.000823
70072000,0.0324,0.013523,0.002678,0.000431,0.000940
70073000,0.0324,0.013523,0.002678,0.000431,0.000823
70074000,0.0324,0.013523,0.002678,0.000431,0.000940
70075000,0.0324,0.013523,0.002678,0.000431,0.000823
70076000,0.0324,0.013523,0.002678,0.000431,0.000940
70077000,0.0324,0.013523,0.002678,0.000431,0.000823
70078000,0.0324,0.013523,0.002678,0.000431,0.000823
70079000,0.0324,0.013523,0.002678,0.000431,0.000940
70080000,0.0324,0.013523,0.002678,0.000431,0.000940
70081000,0.0324,0.013523,0.002678,0.000431,0.000823
70082000,0.0324,0.013523,0.002678,0.000431,0.000823
70083000,0.0324,0.013523,0.002678,0.000431,0.000940
70084000,0.0324,0.013523,0.002678,0.000431,0.000940
70085000,0.0324,0.013523,0.002678,0.000431,0.000823
70086000,0.0324,0.013523,0.002678,0.000431,0.000823
70087000,0.0324,0.013523,0.002678,0.000431,0.000940
70088000,0.0324,0.013523,0.002678,0.000431,0.000823
70089000,0.0324,0.013523,0.002678,0.000431,0.000940
70090000,0.0324,0.013523,0.002678,0.000431,0.000823
70091000,0.0324,0.013523,0.002678,0.000431,0.000940
70092000,0.0324,0.013523,0.002678,0.000431,0.000823
70093000,0.0324,0.013523,0.002678,0.000431,0.000823
70094000,0.0324,0.013523,0.002678,0.000431,0.000940
70095000,0.0324,0.013523,0.002678,0.000431,0.000940
70096000,0.0324,0.013523,0.002678,0.000431,0.000823
70097000,0.0324,0.013523,0.002678,0.000431,0.000823
70098000,0.0324,0.013523,0.002678,0.000431,0.000940
70099000,0.0324,0.013523,0.002678,0.000431,0.000940
70100000,0.0324,0.013523,0.002678,0.000431,0.000705
70101000,0.0324,0.013523,0.002678,0.000431,0.000940
70102000,0.0324,0.013523,0.002678,0.000431,0.000940
70103000,0.0324,0.013523,0.002678,0.000431,0.000940
70104000,0.0324,0.013523,0.002678,0.000431,0.000705
70105000,0.0324,0.013523,0.002678,0.000431,0.000940
70106000,0.0324,0.013523,0.002678,0.000431,0.000940
70107000,0.0324,0.013523,0.002678,0.000431,0.000823
70108000,0.0324,0.013523,0.002678,0.000431,0.000823
70109000,0.0324,0.013523,0.002678,0.000431,0.000940
70110000,0.0324,0.013523,0.002678,0.000431,0.000940
70111000,0.0324,0.013523,0.002678,0.000431,0.000823
70112000,0.0324,0.013523,0.002678,0.000431,0.000823
70113000,0.0324,0.013523,0.002678,0.000431,0.000940
70114000,0.0324,0.013523,0.002678,0.000431,0.000823
70115000,0.0324,0.013523,0.002678,0.000431,0.000940
70116000,0.0324,0.013523,0.002678,0.000431,0.000823
70117000,0.0324,0.013523,0.002678,0.000431,0.000940
70118000,0.0324,0.013523,0.002678,0.000431,0.000940
70119000,0.0324,0.013523,0.002678,0.000431,0.000705
70120000,0.0324,0.013523,0.002678,0.000431,0.000940
70121000,0.0324,0.013523,0.002678,0.000431,0.000940
70122000,0.0324,0.013523,0.002678,0.000431,0.000940
70123000,0.0324,0.013523,0.002678,0.000431,0.000705
70124000,0.0324,0.013523,0.002678,0.000431,0.000940
70125000,0.0324,0.013523,0.002678,0.000431,0.000940
70126000,0.0324,0.013523,0.002678,0.000431,0.000823
70127000,0.0324,0.013523,0.002678,0.000431,0.000823
70128000,0.0324,0.013523,0.002678,0.000431,0.000940
70129000,0.0324,0.013523,0.002678,0.000431,0.000823
70130000,0.0324,0.013523,0.002678,0.000431,0.000940
70131000,0.0324,0.013523,0.002678,0.000431,0.000823
70132000,0.0324,0.013523,0.002678,0.000431,0.000940
70133000,0.0324,0.013523,0.002678,0.000431,0.000823
70134000,0.0324,0.013523,0.002678,0.000431,0.000823
70135000,0.0324,0.013523,0.002678,0.000431,0.000940
70136000,0.0324,0.013523,0.002678,0.000431,0.000940
70137000,0.0324,0.013523,0.002678,0.000431,0.000823
70138000,0.0324,0.013523,0.002678,0.000431,0.000823
70139000,0.0324,0.013523,0.002678,0.000431,0.000940
70140000,0.0324,0.013523,0.002678,0.000431,0.000940
70141000,0.0324,0.013523,0.002678,0.000431,0.000705
70142000,0.0324,0.013523,0.002678,0.000431,0.000940
70143000,0.0324,0.013523,0.002678,0.000431,0.000940
70144000,0.0324,0.013523,0.002678,0.000431,0.000940
70145000,0.0324,0.013523,0.002678,0.000431,0.000823
70146000,0.0324,0.013523,0.002678,0.000431,0.000823
70147000,0.0324,0.013523,0.002678,0.000431,0.000940
70148000,0.0324,0.013523,0.002678,0.000431,0.000823
70149000,0.0324,0.013523,0.002678,0.000431,0.000940
70150000,0.0324,0.013523,0.002678,0.000431,0.000823
70151000,0.0324,0.013523,0.002678,0.000431,0.000940
70152000,0.0324,0.013523,0.002678,0.000431,0.000823
70153000,0.0324,0.013523,0.002678,0.000431,0.000823
70154000,0.0324,0.013523,0.002678,0.000431,0.000940
70155000,0.0324,0.013523,0.002678,0.000431,0.000940
70156000,0.0324,0.013523,0.002678,0.000431,0.000823
70157000,0.0324,0.013523,0.002678,0.000431,0.000823
70158000,0.0324,0.013523,0.002678,0.000431,0.000940
70159000,0.0324,0.013523,0.002678,0.000431,0.000940
70160000,0.0324,0.013523,0.002678,0.000431,0.000705
70161000,0.0324,0.013523,0.002678,0.000431,0.000940
70162000,0.0324,0.013523,0.002678,0.000431,0.000940
70163000,0.0324,0.013523,0.002678,0.000431,0.000940
70164000,0.0324,0.013523,0.002678,0.000431,0.000705
70165000,0.0324,0.013523,0.002678,0.000431,0.000940
70166000,0.0324,0.013523,0.002678,0.000431,0.000940
70167000,0.0324,0.013523,0.002678,0.000431,0.000823
70168000,0.0324,0.013523,0.002678,0.000431,0.000823
70169000,0.0324,0.013523,0.002678,0.000431,0.000940
70170000,0.0324,0.013523,0.002678,0.000431,0.000940
70171000,0.0324,0.013523,0.002678,0.000431,0.000823
70172000,0.0324,0.013523,0.002678,0.000431,0.000823
70173000,0.0324,0.013523,0.002678,0.000431,0.000940
70174000,0.0324,0.013523,0.002678,0.000431,0.000823
70175000,0.0324,0.013523,0.002678,0.000431,0.000823
70176000,0.0324,0.013523,0.002678,0.000431,0.000940
70177000,0.0324,0.013523,0.002678,0.000431,0.000940
70178000,0.0324,0.013523,0.002678,0.000431,0.000940
70179000,0.0324,0.013523,0.002678,0.000431,0.000705
70180000,0.0324,0.013523,0.002678,0.000431,0.000940
70181000,0.0324,0.013523,0.002678,0.000431,0.000940
70182000,0.0324,0.013523,0.002678,0.000431,0.000823
70183000,0.0324,0.013523,0.002678,0.000431,0.000823
70184000,0.0324,0.013523,0.002678,0.000431,0.000940
70185000,0.0324,0.013523,0.002678,0.000431,0.000940
70186000,0.0324,0.013523,0.002678,0.000431,0.000823
70187000,0.0324,0.013523,0.002678,0.000431,0.000823
70188000,0.0324,0.013523,0.002678,0.000431,0.000940
70189000,0.0324,0.013523,0.002678,0.000431,0.000823
70190000,0.0324,0.013523,0.002678,0.000431,0.000940
70191000,0.0324,0.013523,0.002678,0.000431,0.000823
70192000,0.0324,0.013523,0.002678,0.000431,0.000940
70193000,0.0324,0.013523,0.002678,0.000431,0.000823
70194000,0.0324,0.013523,0.002678,0.000431,0.000823
70195000,0.0324,0.013523,0.002678,0.000431,0.000940
70196000,0.0324,0.013523,0.002678,0.000431,0.000940
70197000,0.0324,0.013523,0.002678,0.000431,0.000823
70198000,0.0324,0.013523,0.002678,0.000431,0.000823
70199000,0.0324,0.013523,0.002678,0.000431,0.000940
70200000,0.0324,0.013523,0.002678,0.000431,0.000940
70201000,0.0324,0.013523,0.002678,0.000431,0.000823
70202000,0.0324,0.013523,0.002678,0.000431,0.000823
70203000,0.0324,0.013523,0.002678,0.000431,0.000940
70204000,0.0324,0.013523,0.002678,0.000431,0.000940
70205000,0.0324,0.013523,0.002678,0.000431,0.000823
70206000,0.0324,0.013523,0.002678,0.000431,0.000823
70207000,0.0324,0.013523,0.002678,0.000431,0.000940
70208000,0.0324,0.013523,0.002678,0.000431,0.000823
70209000,0.0324,0.013523,0.002678,0.000431,0.000940
70210000,0.0324,0.013523,0.002678,0.000431,0.000823
70211000,0.0324,0.013523,0.002678,0.000431,0.000940
70212000,0.0324,0.013523,0.002678,0.000431,0.000823
70213000,0.0324,0.013523,0.002678,0.000431,0.000823
70214000,0.0324,0.013523,0.002678,0.000431,0.000940
70215000,0.0324,0.013523,0.002678,0.000431,0.000940
70216000,0.0324,0.013523,0.002678,0.000431,0.000705
70217000,0.0324,0.013523,0.002678,0.000431,0.000940
70218000,0.0324,0.013523,0.002678,0.000431,0.000940
70219000,0.0324,0.013523,0.002678,0.000431,0.000940
70220000,0.0324,0.013523,0.002678,0.000431,0.000705
70221000,0.0324,0.013523,0.002678,0.000431,0.000940
70222000,0.0324,0.013523,0.002678,0.000431,0.000940
70223000,0.0324,0.013523,0.002678,0.000431,0.000823
70224000,0.0324,0.013523,0.002678,0.000431,0.000823
70225000,0.0324,0.013523,0.002678,0.000431,0.000940
70226000,0.0324,0.013523,0.002678,0.000431,0.000940
70227000,0.0324,0.013523,0.002678,0.000431,0.000823
70228000,0.0324,0.013523,0.002678,0.000431,0.000823
70229000,0.0324,0.013523,0.002678,0.000431,0.000940
70230000,0.0324,0.013523,0.002678,0.000431,0.000823
70231000,0.0324,0.013523,0.002678,0.000431,0.000940
70232000,0.0324,0.013523,0.002678,0.000431,0.000823
70233000,0.0324,0.013523,0.002678,0.000431,0.000940
70234000,0.0324,0.013523,0.002678,0.000431,0.000823
70235000,0.0324,0.013523,0.002678,0.000431,0.000823
70236000,0.0324,0.013523,0.002678,0.000431,0.000940
70237000,0.0324,0.013523,0.002678,0.000431,0.000940
70238000,0.0324,0.013523,0.002678,0.000431,0.000940
70239000,0.0324,0.013523,0.002678,0.000431,0.000705
70240000,0.0324,0.013523,0.002678,0.000431,0.000940
70241000,0.0324,0.013523,0.002678,0.000431,0.000940
70242000,0.0324,0.013523,0.002678,0.000431,0.000823
70243000,0.0324,0.013523,0.002678,0.000431,0.000823
70244000,0.0324,0.013523,0.002678,0.000431,0.000940
70245000,0.0324,0.013523,0.002678,0.000431,0.000940
70246000,0.0324,0.013523,0.002678,0.000431,0.000823
70247000,0.0324,0.013523,0.002678,0.000431,0.000823
70248000,0.0324,0.013523,0.002678,0.000431,0.000940
70249000,0.0324,0.013523,0.002678,0.000431,0.000823
70250000,0.0324,0.013523,0.002678,0.000431,0.000940
70251000,0.0324,0.013523,0.002678,0.000431,0.000823
70252000,0.0324,0.013523,0.002678,0.000431,0.000940
70253000,0.0324,0.013523,0.002678,0.000431,0.000823
70254000,0.0324,0.013523,0.002678,0.000431,0.000823
70255000,0.0324,0.013523,0.002678,0.000431,0.000940
70256000,0.0324,0.013523,0.002678,0.000431,0.000940
70257000,0.0324,0.013523,0.002678,0.000431,0.000823
70258000,0.0324,0.013523,0.002678,0.000431,0.000823
70259000,0.0324,0.013523,0.002678,0.000431,0.000940
70260000,0.0324,0.013523,0.002678,0.000431,0.000940
70261000,0.0324,0.013523,0.002678,0.000431,0.000823
70262000,0.0324,0.013523,0.002678,0.000431,0.000823
70263000,0.0324,0.013523,0.002678,0.000431,0.000940
70264000,0.0324,0.013523,0.002678,0.000431,0.000823
70265000,0.0324,0.013523,0.002678,0.000431,0.000940
70266000,0.0324,0.013523,0.002678,0.000431,0.208965
70267000,0.0324,0.013523,0.002678,0.000431,0.575536
70268000,0.0324,0.013523,0.002678,0.000431,0.402652
70269000,0.0324,0.013523,0.002678,0.000431,0.132102
70270000,0.0324,0.013523,0.002678,0.000431,0.137390
70271000,0.0324,0.013523,0.002678,0.000431,0.619844
70272000,0.0324,0.013523,0.002678,0.000431,0.266201
70273000,0.0324,0.013523,0.002678,0.000431,0.317561
70274000,0.0324,0.013523,0.002678,0.000431,0.237172
70275000,0.0324,0.013523,0.002678,0.000431,0.145147
70276000,0.0324,0.013523,0.002678,0.000431,0.138213
70277000,0.0324,0.013523,0.002678,0.000431,0.208142
70278000,0.0324,0.013523,0.002678,0.000431,0.424042
70279000,0.0324,0.013523,0.002678,0.000431,0.109184
70280000,0.0324,0.013523,0.002678,0.000431,0.087088
70281000,0.0324,0.013523,0.002678,0.000431,0.067814
70282000,0.0324,0.013523,0.002678,0.000431,0.065228
70283000,0.0324,0.013523,0.002678,0.000431,0.048069
70284000,0.0324,0.013523,0.002678,0.000431,0.048657
70285000,0.0324,0.013523,0.002678,0.000431,0.039137
70286000,0.0324,0.013523,0.002678,0.000431,0.038432
70287000,0.0324,0.013523,0.002678,0.000431,0.027149
70288000,0.0324,0.013523,0.002678,0.000431,0.027149
70289000,0.0324,0.013523,0.002678,0.000431,0.026091
70290000,0.0324,0.013523,0.002678,0.000431,0.026091
70291000,0.0324,0.013523,0.002678,0.000431,0.024211
70292000,0.0324,0.013523,0.002678,0.000431,0.021978
70293000,0.0324,0.013523,0.002678,0.000431,0.023976
70294000,0.0324,0.013523,0.002678,0.000431,0.025974
70295000,0.0324,0.013523,0.002678,0.000431,0.022448
70296000,0.0324,0.013523,0.002678,0.000431,0.021273
70297000,0.0324,0.013523,0.002678,0.000431,0.019980
70298000,0.0324,0.013523,0.002678,0.000431,0.016924
70299000,0.0324,0.013523,0.002678,0.000431,0.014338
70300000,0.0324,0.013523,0.002678,0.000431,0.016924
70301000,0.0324,0.013523,0.002678,0.000431,0.015984
70302000,0.0324,0.013523,0.002678,0.000431,0.011870
70303000,0.0324,0.013523,0.002678,0.000431,0.012928
70304000,0.0324,0.013523,0.002678,0.000431,0.013751
70305000,0.0324,0.013523,0.002678,0.000431,0.010930
70306000,0.0324,0.013523,0.002678,0.000431,0.011988
70307000,0.0324,0.013523,0.002678,0.000431,0.012223
70308000,0.0324,0.013523,0.002678,0.000431,0.011753
70309000,0.0324,0.013523,0.002678,0.000431,0.011400
70310000,0.0324,0.013523,0.002678,0.000431,0.011165
70311000,0.0324,0.013523,0.002678,0.000431,0.012223
70312000,0.0324,0.013523,0.002678,0.000431,0.011635
70313000,0.0324,0.013523,0.002678,0.000431,0.007992
70314000,0.0324,0.013523,0.002678,0.000431,0.007874
70315000,0.0324,0.013523,0.002678,0.000431,0.008462
70316000,0.0324,0.013523,0.002678,0.000431,0.008580
70317000,0.0324,0.013523,0.002678,0.000431,0.007052
70318000,0.0324,0.013523,0.002678,0.000431,0.006229
70319000,0.0324,0.013523,0.002678,0.000431,0.007169
70320000,0.0324,0.013523,0.002678,0.000431,0.006464
70321000,0.0324,0.013523,0.002678,0.000431,0.004701
70322000,0.0324,0.013523,0.002678,0.000431,0.005406
70323000,0.0324,0.013523,0.002678,0.000431,0.004819
70324000,0.0324,0.013523,0.002678,0.000431,0.005171
70325000,0.0324,0.013523,0.002678,0.000431,0.005171
70326000,0.0324,0.013523,0.002678,0.000431,0.004936
70327000,0.0324,0.013523,0.002678,0.000431,0.006229
70328000,0.0324,0.013523,0.002678,0.000431,0.005641
70329000,0.0324,0.013523,0.002678,0.000431,0.004231
70330000,0.0324,0.013523,0.002678,0.000431,0.004113
70331000,0.0324,0.013523,0.002678,0.000431,0.004349
70332000,0.0324,0.013523,0.002678,0.000431,0.004349
70333000,0.0324,0.013523,0.002678,0.000431,0.003996
70334000,0.0324,0.013523,0.002678,0.000431,0.004349
70335000,0.0324,0.013523,0.002678,0.000431,0.003996
70336000,0.0324,0.013523,0.002678,0.000431,0.004466
70337000,0.0324,0.013523,0.002678,0.000431,0.004113
70338000,0.0324,0.013523,0.002678,0.000431,0.006347
70339000,0.0324,0.013523,0.002678,0.000431,0.003408
70340000,0.0324,0.013523,0.002678,0.000431,0.003408
70341000,0.0324,0.013523,0.002678,0.000431,0.003408
70342000,0.0324,0.013523,0.002678,0.000431,0.003291
70343000,0.0324,0.013523,0.002678,0.000431,0.003526
70344000,0.0324,0.013523,0.002678,0.000431,0.005054
70345000,0.0324,0.013523,0.002678,0.000431,0.002703
70346000,0.0324,0.013523,0.002678,0.000431,0.002468
70347000,0.0324,0.013523,0.002678,0.000431,0.002468
70348000,0.0324,0.013523,0.002678,0.000431,0.002703
70349000,0.0324,0.013523,0.002678,0.000431,0.002351
70350000,0.0324,0.013523,0.002678,0.000431,0.004113
70351000,0.0324,0.013523,0.002678,0.000431,0.001763
70352000,0.0324,0.013523,0.002678,0.000431,0.001645
70353000,0.0324,0.013523,0.002678,0.000431,0.001645
70354000,0.0324,0.013523,0.002678,0.000431,0.001645
70355000,0.0324,0.013523,0.002678,0.000431,0.001763
70356000,0.0324,0.013523,0.002678,0.000431,0.001528
70357000,0.0324,0.013523,0.002678,0.000431,0.001880
70358000,0.0324,0.013523,0.002678,0.000431,0.001645
70359000,0.0324,0.013523,0.002678,0.000431,0.001645
70360000,0.0324,0.013523,0.002678,0.000431,0.001528
70361000,0.0324,0.013523,0.002678,0.000431,0.001763
70362000,0.0324,0.013523,0.002678,0.000431,0.001763
70363000,0.0324,0.013523,0.002678,0.000431,0.001528
70364000,0.0324,0.013523,0.002678,0.000431,0.001763
70365000,0.0324,0.013523,0.002678,0.000431,0.001528
70366000,0.0324,0.013523,0.002678,0.000431,0.001880
70367000,0.0324,0.013523,0.002678,0.000431,0.001645
70368000,0.0324,0.013523,0.002678,0.000431,0.001645
70369000,0.0324,0.013523,0.002678,0.000431,0.001645
70370000,0.0324,0.013523,0.002678,0.000431,0.001645
70371000,0.0324,0.013523,0.002678,0.000431,0.004113
70372000,0.0324,0.013523,0.002678,0.000431,0.000705
70373000,0.0324,0.013523,0.002678,0.000431,0.000940
70374000,0.0324,0.013523,0.002678,0.000431,0.000705
70375000,0.0324,0.013523,0.002678,0.000431,0.000940
70376000,0.0324,0.013523,0.002678,0.000431,0.000823
70377000,0.0324,0.013523,0.002678,0.000431,0.000823
70378000,0.0324,0.013523,0.002678,0.000431,0.000940
70379000,0.0324,0.013523,0.002678,0.000431,0.000705
70380000,0.0324,0.013523,0.002678,0.000431,0.000940
70381000,0.0324,0.013523,0.002678,0.000431,0.000823
70382000,0.0324,0.013523,0.002678,0.000431,0.000823
70383000,0.0324,0.013523,0.002678,0.000431,0.000823
70384000,0.0324,0.013523,0.002678,0.000431,0.000823
70385000,0.0324,0.013523,0.002678,0.000431,0.000940
70386000,0.0324,0.013523,0.002678,0.000431,0.000705
70387000,0.0324,0.013523,0.002678,0.000431,0.000940
70388000,0.0324,0.013523,0.002678,0.000431,0.000823
70389000,0.0324,0.013523,0.002678,0.000431,0.000823
70390000,0.0324,0.013523,0.002678,0.000431,0.000823
70391000,0.0324,0.013523,0.002678,0.000431,0.000823
70392000,0.0324,0.013523,0.002678,0.000431,0.000940
70393000,0.0324,0.013523,0.002678,0.000431,0.000940
70394000,0.0324,0.013523,0.002678,0.000431,0.000940
70395000,0.0324,0.013523,0.002678,0.000431,0.000940
70396000,0.0324,0.013523,0.002678,0.000431,0.000823
70397000,0.0324,0.013523,0.002678,0.000431,0.000823
70398000,0.0324,0.013523,0.002678,0.000431,0.000940
70399000,0.0324,0.013523,0.002678,0.000431,0.000940
70400000,0.0324,0.013523,0.002678,0.000431,0.000823
70401000,0.0324,0.013523,0.002678,0.000431,0.000823
70402000,0.0324,0.013523,0.002678,0.000431,0.000940
70403000,0.0324,0.013523,0.002678,0.000431,0.000940
70404000,0.0324,0.013523,0.002678,0.000431,0.000705
70405000,0.0324,0.013523,0.002678,0.000431,0.000940
70406000,0.0324,0.013523,0.002678,0.000431,0.000940
70407000,0.0324,0.013523,0.002678,0.000431,0.000940
70408000,0.0324,0.013523,0.002678,0.000431,0.237289
70409000,0.0324,0.013523,0.002678,0.000431,0.658275
70410000,0.0324,0.013523,0.002678,0.000431,0.365748
70411000,0.0324,0.013523,0.002678,0.000431,0.133042
70412000,0.0324,0.013523,0.002678,0.000431,0.133512
70413000,0.0324,0.013523,0.002678,0.000431,0.589874
70414000,0.0324,0.013523,0.002678,0.000431,0.263616
70415000,0.0324,0.013523,0.002678,0.000431,0.264791
70416000,0.0324,0.013523,0.002678,0.000431,0.236937
70417000,0.0324,0.013523,0.002678,0.000431,0.138683
70418000,0.0324,0.013523,0.002678,0.000431,0.175470
70419000,0.0324,0.013523,0.002678,0.000431,0.129634
70420000,0.0324,0.013523,0.002678,0.000431,0.454834
70421000,0.0324,0.013523,0.002678,0.000431,0.080272
70422000,0.0324,0.013523,0.002678,0.000431,0.051830
70423000,0.0324,0.013523,0.002678,0.000431,0.038432
70424000,0.0324,0.013523,0.002678,0.000431,0.046189
70425000,0.0324,0.013523,0.002678,0.000431,0.032085
70426000,0.0324,0.013523,0.002678,0.000431,0.033966
70427000,0.0324,0.013523,0.002678,0.000431,0.024798
70428000,0.0324,0.013523,0.002678,0.000431,0.024916
70429000,0.0324,0.013523,0.002678,0.000431,0.019627
70430000,0.0324,0.013523,0.002678,0.000431,0.018805
70431000,0.0324,0.013523,0.002678,0.000431,0.021273
70432000,0.0324,0.013523,0.002678,0.000431,0.016924
70433000,0.0324,0.013523,0.002678,0.000431,0.015866
70434000,0.0324,0.013523,0.002678,0.000431,0.016219
70435000,0.0324,0.013523,0.002678,0.000431,0.014691
70436000,0.0324,0.013523,0.002678,0.000431,0.017159
70437000,0.0324,0.013523,0.002678,0.000431,0.012458
70438000,0.0324,0.013523,0.002678,0.000431,0.012458
70439000,0.0324,0.013523,0.002678,0.000431,0.012340
70440000,0.0324,0.013523,0.002678,0.000431,0.014456
70441000,0.0324,0.013523,0.002678,0.000431,0.010695
70442000,0.0324,0.013523,0.002678,0.000431,0.009872
70443000,0.0324,0.013523,0.002678,0.000431,0.010578
70444000,0.0324,0.013523,0.002678,0.000431,0.009872
70445000,0.0324,0.013523,0.002678,0.000431,0.012458
70446000,0.0324,0.013523,0.002678,0.000431,0.009167
70447000,0.0324,0.013523,0.002678,0.000431,0.009285
70448000,0.0324,0.013523,0.002678,0.000431,0.009872
70449000,0.0324,0.013523,0.002678,0.000431,0.008697
70450000,0.0324,0.013523,0.002678,0.000431,0.011518
70451000,0.0324,0.013523,0.002678,0.000431,0.007874
70452000,0.0324,0.013523,0.002678,0.000431,0.008932
70453000,0.0324,0.013523,0.002678,0.000431,0.008227
70454000,0.0324,0.013523,0.002678,0.000431,0.008815
70455000,0.0324,0.013523,0.002678,0.000431,0.009520
70456000,0.0324,0.013523,0.002678,0.000431,0.007874
70457000,0.0324,0.013523,0.002678,0.000431,0.008227
70458000,0.0324,0.013523,0.002678,0.000431,0.007052
70459000,0.0324,0.013523,0.002678,0.000431,0.007874
70460000,0.0324,0.013523,0.002678,0.000431,0.007404
70461000,0.0324,0.013523,0.002678,0.000431,0.008932
70462000,0.0324,0.013523,0.002678,0.000431,0.007992
70463000,0.0324,0.013523,0.002678,0.000431,0.006699
70464000,0.0324,0.013523,0.002678,0.000431,0.007052
70465000,0.0324,0.013523,0.002678,0.000431,0.006699
70466000,0.0324,0.013523,0.002678,0.000431,0.006699
70467000,0.0324,0.013523,0.002678,0.000431,0.008697
70468000,0.0324,0.013523,0.002678,0.000431,0.006934
70469000,0.0324,0.013523,0.002678,0.000431,0.005876
70470000,0.0324,0.013523,0.002678,0.000431,0.006699
70471000,0.0324,0.013523,0.002678,0.000431,0.004231
70472000,0.0324,0.013523,0.002678,0.000431,0.004349
70473000,0.0324,0.013523,0.002678,0.000431,0.003996
70474000,0.0324,0.013523,0.002678,0.000431,0.004349
70475000,0.0324,0.013523,0.002678,0.000431,0.004466
70476000,0.0324,0.013523,0.002678,0.000431,0.004113
70477000,0.0324,0.013523,0.002678,0.000431,0.004466
70478000,0.0324,0.013523,0.002678,0.000431,0.003996
70479000,0.0324,0.013523,0.002678,0.000431,0.004584
70480000,0.0324,0.013523,0.002678,0.000431,0.004113
70481000,0.0324,0.013523,0.002678,0.000431,0.004349
70482000,0.0324,0.013523,0.002678,0.000431,0.004349
70483000,0.0324,0.013523,0.002678,0.000431,0.003996
70484000,0.0324,0.013523,0.002678,0.000431,0.004231
70485000,0.0324,0.013523,0.002678,0.000431,0.005406
70486000,0.0324,0.013523,0.002678,0.000431,0.006699
70487000,0.0324,0.013523,0.002678,0.000431,0.002468
70488000,0.0324,0.013523,0.002678,0.000431,0.002703
70489000,0.0324,0.013523,0.002678,0.000431,0.002703
70490000,0.0324,0.013523,0.002678,0.000431,0.002351
70491000,0.0324,0.013523,0.002678,0.000431,0.002703
70492000,0.0324,0.013523,0.002678,0.000431,0.002821
70493000,0.0324,0.013523,0.002678,0.000431,0.002351
70494000,0.0324,0.013523,0.002678,0.000431,0.002703
70495000,0.0324,0.013523,0.002678,0.000431,0.002586
70496000,0.0324,0.013523,0.002678,0.000431,0.002703
70497000,0.0324,0.013523,0.002678,0.000431,0.004113
70498000,0.0324,0.013523,0.002678,0.000431,0.001998
70499000,0.0324,0.013523,0.002678,0.000431,0.001645
70500000,0.0324,0.013523,0.002678,0.000431,0.001763
70501000,0.0324,0.013523,0.002678,0.000431,0.001528
70502000,0.0324,0.013523,0.002678,0.000431,0.001880
70503000,0.0324,0.013523,0.002678,0.000431,0.001763
70504000,0.0324,0.013523,0.002678,0.000431,0.001645
70505000,0.0324,0.013523,0.002678,0.000431,0.001763
70506000,0.0324,0.013523,0.002678,0.000431,0.001645
70507000,0.0324,0.013523,0.002678,0.000431,0.001763
70508000,0.0324,0.013523,0.002678,0.000431,0.001645
70509000,0.0324,0.013523,0.002678,0.000431,0.001763
70510000,0.0324,0.013523,0.002678,0.000431,0.001763
70511000,0.0324,0.013523,0.002678,0.000431,0.001645
70512000,0.0324,0.013523,0.002678,0.000431,0.001763
70513000,0.0324,0.013523,0.002678,0.000431,0.001763
70514000,0.0324,0.013523,0.002678,0.000431,0.001763
70515000,0.0324,0.013523,0.002678,0.000431,0.001645
70516000,0.0324,0.013523,0.002678,0.000431,0.001645
70517000,0.0324,0.013523,0.002678,0.000431,0.001763
70518000,0.0324,0.013523,0.002678,0.000431,0.001763
70519000,0.0324,0.013523,0.002678,0.000431,0.001763
70520000,0.0324,0.013523,0.002678,0.000431,0.001528
70521000,0.0324,0.013523,0.002678,0.000431,0.001763
70522000,0.0324,0.013523,0.002678,0.000431,0.001763
70523000,0.0324,0.013523,0.002678,0.000431,0.001763
70524000,0.0324,0.013523,0.002678,0.000431,0.001645
70525000,0.0324,0.013523,0.002678,0.000431,0.001763
70526000,0.0324,0.013523,0.002678,0.000431,0.001528
70527000,0.0324,0.013523,0.002678,0.000431,0.001763
70528000,0.0324,0.013523,0.002678,0.000431,0.001880
70529000,0.0324,0.013523,0.002678,0.000431,0.001645
70530000,0.0324,0.013523,0.002678,0.000431,0.001763
70531000,0.0324,0.013523,0.002678,0.000431,0.001528
70532000,0.0324,0.013523,0.002678,0.000431,0.001880
70533000,0.0324,0.013523,0.002678,0.000431,0.001880
70534000,0.0324,0.013523,0.002678,0.000431,0.001410
70535000,0.0324,0.013523,0.002678,0.000431,0.001880
70536000,0.0324,0.013523,0.002678,0.000431,0.001645
70537000,0.0324,0.013523,0.002678,0.000431,0.001880
70538000,0.0324,0.013523,0.002678,0.000431,0.001528
70539000,0.0324,0.013523,0.002678,0.000431,0.001763
70540000,0.0324,0.013523,0.002678,0.000431,0.001763
70541000,0.0324,0.013523,0.002678,0.000431,0.001645
70542000,0.0324,0.013523,0.002678,0.000431,0.001880
70543000,0.0324,0.013523,0.002678,0.000431,0.001528
70544000,0.0324,0.013523,0.002678,0.000431,0.001880
70545000,0.0324,0.013523,0.002678,0.000431,0.001645
70546000,0.0324,0.013523,0.002678,0.000431,0.001645
70547000,0.0324,0.013523,0.002678,0.000431,0.001763
70548000,0.0324,0.013523,0.002678,0.000431,0.001645
70549000,0.0324,0.013523,0.002678,0.000431,0.001645
70550000,0.0324,0.013523,0.002678,0.000431,0.001763
70551000,0.0324,0.013523,0.002678,0.000431,0.001880
70552000,0.0324,0.013523,0.002678,0.000431,0.001645
70553000,0.0324,0.013523,0.002678,0.000431,0.001645
70554000,0.0324,0.013523,0.002678,0.000431,0.001645
70555000,0.0324,0.013523,0.002678,0.000431,0.001880
70556000,0.0324,0.013523,0.002678,0.000431,0.001763
70557000,0.0324,0.013523,0.002678,0.000431,0.001528
70558000,0.0324,0.013523,0.002678,0.000431,0.001880
70559000,0.0324,0.013523,0.002678,0.000431,0.001645
70560000,0.0324,0.013523,0.002678,0.000431,0.001763
70561000,0.0324,0.013523,0.002678,0.000431,0.001645
70562000,0.0324,0.013523,0.002678,0.000431,0.001763
70563000,0.0324,0.013523,0.002678,0.000431,0.003408
70564000,0.0324,0.013523,0.002678,0.000431,0.000940
70565000,0.0324,0.013523,0.002678,0.000431,0.000940
70566000,0.0324,0.013523,0.002678,0.000431,0.000705
70567000,0.0324,0.013523,0.002678,0.000431,0.000940
70568000,0.0324,0.013523,0.002678,0.000431,0.000823
70569000,0.0324,0.013523,0.002678,0.000431,0.001645
70570000,0.0324,0.013523,0.002678,0.000431,0.298757
70571000,0.0324,0.013523,0.002678,0.000431,0.650636
70572000,0.0324,0.013523,0.002678,0.000431,0.250688
70573000,0.0324,0.013523,0.002678,0.000431,0.132102
70574000,0.0324,0.013523,0.002678,0.000431,0.137978
70575000,0.0324,0.013523,0.002678,0.000431,0.616435
70576000,0.0324,0.013523,0.002678,0.000431,0.243518
70577000,0.0324,0.013523,0.002678,0.000431,0.312742
70578000,0.0324,0.013523,0.002678,0.000431,0.252803
70579000,0.0324,0.013523,0.002678,0.000431,0.144795
70580000,0.0324,0.013523,0.002678,0.000431,0.147498
70581000,0.0324,0.013523,0.002678,0.000431,0.162306
70582000,0.0324,0.013523,0.002678,0.000431,0.414639
70583000,0.0324,0.013523,0.002678,0.000431,0.013398
70584000,0.0324,0.013523,0.002678,0.000431,0.012105
70585000,0.0324,0.013523,0.002678,0.000431,0.008815
70586000,0.0324,0.013523,0.002678,0.000431,0.003878
70587000,0.0324,0.013523,0.002678,0.000431,0.005406
70588000,0.0324,0.013523,0.002678,0.000431,0.004349
70589000,0.0324,0.013523,0.002678,0.000431,0.003643
70590000,0.0324,0.013523,0.002678,0.000431,0.003173
70591000,0.0324,0.013523,0.002678,0.000431,0.004113
70592000,0.0324,0.013523,0.002678,0.000431,0.004936
70593000,0.0324,0.013523,0.002678,0.000431,0.002821
70594000,0.0324,0.013523,0.002678,0.000431,0.001763
70595000,0.0324,0.013523,0.002678,0.000431,0.001645
70596000,0.0324,0.013523,0.002678,0.000431,0.001763
70597000,0.0324,0.013523,0.002678,0.000431,0.001763
70598000,0.0324,0.013523,0.002678,0.000431,0.001645
70599000,0.0324,0.013523,0.002678,0.000431,0.001763
70600000,0.0324,0.013523,0.002678,0.000431,0.001645
70601000,0.0324,0.013523,0.002678,0.000431,0.001528
70602000,0.0324,0.013523,0.002678,0.000431,0.001880
70603000,0.0324,0.013523,0.002678,0.000431,0.001880
70604000,0.0324,0.013523,0.002678,0.000431,0.001528
70605000,0.0324,0.013523,0.002678,0.000431,0.001763
70606000,0.0324,0.013523,0.002678,0.000431,0.001645
70607000,0.0324,0.013523,0.002678,0.000431,0.001880
70608000,0.0324,0.013523,0.002678,0.000431,0.001645
70609000,0.0324,0.013523,0.002678,0.000431,0.001645
70610000,0.0324,0.013523,0.002678,0.000431,0.001880
70611000,0.0324,0.013523,0.002678,0.000431,0.001645
70612000,0.0324,0.013523,0.002678,0.000431,0.001763
70613000,0.0324,0.013523,0.002678,0.000431,0.001645
70614000,0.0324,0.013523,0.002678,0.000431,0.001763
70615000,0.0324,0.013523,0.002678,0.000431,0.001645
70616000,0.0324,0.013523,0.002678,0.000431,0.001763
70617000,0.0324,0.013523,0.002678,0.000431,0.001763
70618000,0.0324,0.013523,0.002678,0.000431,0.001645
70619000,0.0324,0.013523,0.002678,0.000431,0.001763
70620000,0.0324,0.013523,0.002678,0.000431,0.001645
70621000,0.0324,0.013523,0.002678,0.000431,0.001645
70622000,0.0324,0.013523,0.002678,0.000431,0.001880
70623000,0.0324,0.013523,0.002678,0.000431,0.001645
70624000,0.0324,0.013523,0.002678,0.000431,0.003056
70625000,0.0324,0.013523,0.002678,0.000431,0.000940
70626000,0.0324,0.013523,0.002678,0.000431,0.000940
70627000,0.0324,0.013523,0.002678,0.000431,0.000705
70628000,0.0324,0.013523,0.002678,0.000431,0.000940
70629000,0.0324,0.013523,0.002678,0.000431,0.000940
70630000,0.0324,0.013523,0.002678,0.000431,0.000940
70631000,0.0324,0.013523,0.002678,0.000431,0.000705
70632000,0.0324,0.013523,0.002678,0.000431,0.000940
70633000,0.0324,0.013523,0.002678,0.000431,0.000940
70634000,0.0324,0.013523,0.002678,0.000431,0.000823
70635000,0.0324,0.013523,0.002678,0.000431,0.000823
70636000,0.0324,0.013523,0.002678,0.000431,0.000940
70637000,0.0324,0.013523,0.002678,0.000431,0.000940
70638000,0.0324,0.013523,0.002678,0.000431,0.000823
70639000,0.0324,0.013523,0.002678,0.000431,0.000823
70640000,0.0324,0.013523,0.002678,0.000431,0.000940
70641000,0.0324,0.013523,0.002678,0.000431,0.000823
70642000,0.0324,0.013523,0.002678,0.000431,0.000823
70643000,0.0324,0.013523,0.002678,0.000431,0.000940
70644000,0.0324,0.013523,0.002678,0.000431,0.000940
70645000,0.0324,0.013523,0.002678,0.000431,0.000940
70646000,0.0324,0.013523,0.002678,0.000431,0.000705
70647000,0.0324,0.013523,0.002678,0.000431,0.000940
70648000,0.0324,0.013523,0.002678,0.000431,0.000940
70649000,0.0324,0.013523,0.002678,0.000431,0.020215
70650000,0.0324,0.013523,0.002678,0.000431,0.430153
70651000,0.0324,0.013523,0.002678,0.000431,0.601744
70652000,0.0324,0.013523,0.002678,0.000431,0.131514
70653000,0.0324,0.013523,0.002678,0.000431,0.131632
70654000,0.0324,0.013523,0.002678,0.000431,0.293938
70655000,0.0324,0.013523,0.002678,0.000431,0.468467
70656000,0.0324,0.013523,0.002678,0.000431,0.222716
70657000,0.0324,0.013523,0.002678,0.000431,0.295466
70658000,0.0324,0.013523,0.002678,0.000431,0.224479
70659000,0.0324,0.013523,0.002678,0.000431,0.137155
70660000,0.0324,0.013523,0.002678,0.000431,0.173707
70661000,0.0324,0.013523,0.002678,0.000431,0.096256
70662000,0.0324,0.013523,0.002678,0.000431,0.453424
70663000,0.0324,0.013523,0.002678,0.000431,0.116118
70664000,0.0324,0.013523,0.002678,0.000431,0.052183
70665000,0.0324,0.013523,0.002678,0.000431,0.046306
70666000,0.0324,0.013523,0.002678,0.000431,0.040665
70667000,0.0324,0.013523,0.002678,0.000431,0.029617
70668000,0.0324,0.013523,0.002678,0.000431,0.029735
70669000,0.0324,0.013523,0.002678,0.000431,0.023036
70670000,0.0324,0.013523,0.002678,0.000431,0.021860
70671000,0.0324,0.013523,0.002678,0.000431,0.021508
70672000,0.0324,0.013523,0.002678,0.000431,0.025974
70673000,0.0324,0.013523,0.002678,0.000431,0.024211
70674000,0.0324,0.013523,0.002678,0.000431,0.012340
70675000,0.0324,0.013523,0.002678,0.000431,0.011283
70676000,0.0324,0.013523,0.002678,0.000431,0.011283
70677000,0.0324,0.013523,0.002678,0.000431,0.011283
70678000,0.0324,0.013523,0.002678,0.000431,0.013163
70679000,0.0324,0.013523,0.002678,0.000431,0.011048
70680000,0.0324,0.013523,0.002678,0.000431,0.013751
70681000,0.0324,0.013523,0.002678,0.000431,0.009402
70682000,0.0324,0.013523,0.002678,0.000431,0.009637
70683000,0.0324,0.013523,0.002678,0.000431,0.009637
70684000,0.0324,0.013523,0.002678,0.000431,0.009050
70685000,0.0324,0.013523,0.002678,0.000431,0.009872
70686000,0.0324,0.013523,0.002678,0.000431,0.008462
70687000,0.0324,0.013523,0.002678,0.000431,0.008815
70688000,0.0324,0.013523,0.002678,0.000431,0.009637
70689000,0.0324,0.013523,0.002678,0.000431,0.009637
70690000,0.0324,0.013523,0.002678,0.000431,0.008109
70691000,0.0324,0.013523,0.002678,0.000431,0.006699
70692000,0.0324,0.013523,0.002678,0.000431,0.007052
70693000,0.0324,0.013523,0.002678,0.000431,0.009167
70694000,0.0324,0.013523,0.002678,0.000431,0.007287
70695000,0.0324,0.013523,0.002678,0.000431,0.006464
70696000,0.0324,0.013523,0.002678,0.000431,0.004231
70697000,0.0324,0.013523,0.002678,0.000431,0.004231
70698000,0.0324,0.013523,0.002678,0.000431,0.006699
70699000,0.0324,0.013523,0.002678,0.000431,0.003761
70700000,0.0324,0.013523,0.002678,0.000431,0.003408
70701000,0.0324,0.013523,0.002678,0.000431,0.003408
70702000,0.0324,0.013523,0.002678,0.000431,0.003173
70703000,0.0324,0.013523,0.002678,0.000431,0.003408
70704000,0.0324,0.013523,0.002678,0.000431,0.005994
70705000,0.0324,0.013523,0.002678,0.000431,0.002468
70706000,0.0324,0.013523,0.002678,0.000431,0.004349
70707000,0.0324,0.013523,0.002678,0.000431,0.001410
70708000,0.0324,0.013523,0.002678,0.000431,0.001880
70709000,0.0324,0.013523,0.002678,0.000431,0.001528
70710000,0.0324,0.013523,0.002678,0.000431,0.001763
70711000,0.0324,0.013523,0.002678,0.000431,0.001763
70712000,0.0324,0.013523,0.002678,0.000431,0.001528
70713000,0.0324,0.013523,0.002678,0.000431,0.001880
70714000,0.0324,0.013523,0.002678,0.000431,0.001528
70715000,0.0324,0.013523,0.002678,0.000431,0.001763
70716000,0.0324,0.013523,0.002678,0.000431,0.001645
70717000,0.0324,0.013523,0.002678,0.000431,0.001645
70718000,0.0324,0.013523,0.002678,0.000431,0.001645
70719000,0.0324,0.013523,0.002678,0.000431,0.001645
70720000,0.0324,0.013523,0.002678,0.000431,0.001880
70721000,0.0324,0.013523,0.002678,0.000431,0.001410
70722000,0.0324,0.013523,0.002678,0.000431,0.001763
70723000,0.0324,0.013523,0.002678,0.000431,0.001763
70724000,0.0324,0.013523,0.002678,0.000431,0.001645
70725000,0.0324,0.013523,0.002678,0.000431,0.001645
70726000,0.0324,0.013523,0.002678,0.000431,0.001645
70727000,0.0324,0.013523,0.002678,0.000431,0.001528
70728000,0.0324,0.013523,0.002678,0.000431,0.001763
70729000,0.0324,0.013523,0.002678,0.000431,0.001880
70730000,0.0324,0.013523,0.002678,0.000431,0.001410
70731000,0.0324,0.013523,0.002678,0.000431,0.001880
70732000,0.0324,0.013523,0.002678,0.000431,0.001410
70733000,0.0324,0.013523,0.002678,0.000431,0.001880
70734000,0.0324,0.013523,0.002678,0.000431,0.001880
70735000,0.0324,0.013523,0.002678,0.000431,0.001410
70736000,0.0324,0.013523,0.002678,0.000431,0.001880
70737000,0.0324,0.013523,0.002678,0.000431,0.001410
70738000,0.0324,0.013523,0.002678,0.000431,0.001880
70739000,0.0324,0.013523,0.002678,0.000431,0.001645
70740000,0.0324,0.013523,0.002678,0.000431,0.001645
70741000,0.0324,0.013523,0.002678,0.000431,0.001645
70742000,0.0324,0.013523,0.002678,0.000431,0.001645
70743000,0.0324,0.013523,0.002678,0.000431,0.001880
70744000,0.0324,0.013523,0.002678,0.000431,0.001410
70745000,0.0324,0.013523,0.002678,0.000431,0.001880
70746000,0.0324,0.013523,0.002678,0.000431,0.001645
70747000,0.0324,0.013523,0.002678,0.000431,0.001645
70748000,0.0324,0.013523,0.002678,0.000431,0.001645
70749000,0.0324,0.013523,0.002678,0.000431,0.001645
70750000,0.0324,0.013523,0.002678,0.000431,0.001528
70751000,0.0324,0.013523,0.002678,0.000431,0.001763
70752000,0.0324,0.013523,0.002678,0.000431,0.001763
70753000,0.0324,0.013523,0.002678,0.000431,0.001645
70754000,0.0324,0.013523,0.002678,0.000431,0.001763
70755000,0.0324,0.013523,0.002678,0.000431,0.001528
70756000,0.0324,0.013523,0.002678,0.000431,0.001763
70757000,0.0324,0.013523,0.002678,0.000431,0.001528
70758000,0.0324,0.013523,0.002678,0.000431,0.003526
70759000,0.0324,0.013523,0.002678,0.000431,0.000940
70760000,0.0324,0.013523,0.002678,0.000431,0.000705
70761000,0.0324,0.013523,0.002678,0.000431,0.000940
70762000,0.0324,0.013523,0.002678,0.000431,0.000823
70763000,0.0324,0.013523,0.002678,0.000431,0.000823
70764000,0.0324,0.013523,0.002678,0.000431,0.000823
70765000,0.0324,0.013523,0.002678,0.000431,0.000823
70766000,0.0324,0.013523,0.002678,0.000431,0.000823
70767000,0.0324,0.013523,0.002678,0.000431,0.000823
70768000,0.0324,0.013523,0.002678,0.000431,0.000940
70769000,0.0324,0.013523,0.002678,0.000431,0.000705
70770000,0.0324,0.013523,0.002678,0.000431,0.000823
70771000,0.0324,0.013523,0.002678,0.000431,0.000940
70772000,0.0324,0.013523,0.002678,0.000431,0.000823
70773000,0.0324,0.013523,0.002678,0.000431,0.000823
70774000,0.0324,0.013523,0.002678,0.000431,0.000823
70775000,0.0324,0.013523,0.002678,0.000431,0.000823
70776000,0.0324,0.013523,0.002678,0.000431,0.000823
70777000,0.0324,0.013523,0.002678,0.000431,0.000940
70778000,0.0324,0.013523,0.002678,0.000431,0.000705
70779000,0.0324,0.013523,0.002678,0.000431,0.000940
70780000,0.0324,0.013523,0.002678,0.000431,0.000705
70781000,0.0324,0.013523,0.002678,0.000431,0.000940
70782000,0.0324,0.013523,0.002678,0.000431,0.000940
70783000,0.0324,0.013523,0.002678,0.000431,0.000705
70784000,0.0324,0.013523,0.002678,0.000431,0.000940
70785000,0.0324,0.013523,0.002678,0.000431,0.000705
70786000,0.0324,0.013523,0.002678,0.000431,0.000940
70787000,0.0324,0.013523,0.002678,0.000431,0.000823
70788000,0.0324,0.013523,0.002678,0.000431,0.000823
70789000,0.0324,0.013523,0.002678,0.000431,0.000823
70790000,0.0324,0.013523,0.002678,0.000431,0.000823
70791000,0.0324,0.013523,0.002678,0.000431,0.000940
70792000,0.0324,0.013523,0.002678,0.000431,0.000705
70793000,0.0324,0.013523,0.002678,0.000431,0.000940
70794000,0.0324,0.013523,0.002678,0.000431,0.000823
70795000,0.0324,0.013523,0.002678,0.000431,0.000823
70796000,0.0324,0.013523,0.002678,0.000431,0.000823
70797000,0.0324,0.013523,0.002678,0.000431,0.000823
70798000,0.0324,0.013523,0.002678,0.000431,0.000823
70799000,0.0324,0.013523,0.002678,0.000431,0.000823
70800000,0.0324,0.013523,0.002678,0.000431,0.000940
70801000,0.0324,0.013523,0.002678,0.000431,0.000705
70802000,0.0324,0.013523,0.002678,0.000431,0.000940
70803000,0.0324,0.013523,0.002678,0.000431,0.000705
70804000,0.0324,0.013523,0.002678,0.000431,0.000940
70805000,0.0324,0.013523,0.002678,0.000431,0.000940
70806000,0.0324,0.013523,0.002678,0.000431,0.000705
70807000,0.0324,0.013523,0.002678,0.000431,0.000940
70808000,0.0324,0.013523,0.002678,0.000431,0.000705
70809000,0.0324,0.013523,0.002678,0.000431,0.000940
70810000,0.0324,0.013523,0.002678,0.000431,0.000823
70811000,0.0324,0.013523,0.002678,0.000431,0.000823
70812000,0.0324,0.013523,0.002678,0.000431,0.000823
70813000,0.0324,0.013523,0.002678,0.000431,0.000823
70814000,0.0324,0.013523,0.002678,0.000431,0.000940
70815000,0.0324,0.013523,0.002678,0.000431,0.000823
70816000,0.0324,0.013523,0.002678,0.000431,0.000823
70817000,0.0324,0.013523,0.002678,0.000431,0.000823
70818000,0.0324,0.013523,0.002678,0.000431,0.000823
70819000,0.0324,0.013523,0.002678,0.000431,0.000823
70820000,0.0324,0.013523,0.002678,0.000431,0.000823
70821000,0.0324,0.013523,0.002678,0.000431,0.000940
70822000,0.0324,0.013523,0.002678,0.000431,0.000705
70823000,0.0324,0.013523,0.002678,0.000431,0.000823
70824000,0.0324,0.013523,0.002678,0.000431,0.000940
70825000,0.0324,0.013523,0.002678,0.000431,0.000823
70826000,0.0324,0.013523,0.002678,0.000431,0.000823
70827000,0.0324,0.013523,0.002678,0.000431,0.000823
70828000,0.0324,0.013523,0.002678,0.000431,0.000705
70829000,0.0324,0.013523,0.002678,0.000431,0.000940
70830000,0.0324,0.013523,0.002678,0.000431,0.000940
70831000,0.0324,0.013523,0.002678,0.000431,0.000705
70832000,0.0324,0.013523,0.002678,0.000431,0.000940
70833000,0.0324,0.013523,0.002678,0.000431,0.000705
70834000,0.0324,0.013523,0.002678,0.000431,0.000940
70835000,0.0324,0.013523,0.002678,0.000431,0.000940
70836000,0.0324,0.013523,0.002678,0.000431,0.000705
70837000,0.0324,0.013523,0.002678,0.000431,0.000940
70838000,0.0324,0.013523,0.002678,0.000431,0.000705
70839000,0.0324,0.013523,0.002678,0.000431,0.000940
70840000,0.0324,0.013523,0.002678,0.000431,0.000823
70841000,0.0324,0.013523,0.002678,0.000431,0.000823
70842000,0.0324,0.013523,0.002678,0.000431,0.000823
70843000,0.0324,0.013523,0.002678,0.000431,0.000823
70844000,0.0324,0.013523,0.002678,0.000431,0.000940
70845000,0.0324,0.013523,0.002678,0.000431,0.000705
70846000,0.0324,0.013523,0.002678,0.000431,0.000940
70847000,0.0324,0.013523,0.002678,0.000431,0.000823
70848000,0.0324,0.013523,0.002678,0.000431,0.000823
70849000,0.0324,0.013523,0.002678,0.000431,0.000823
70850000,0.0324,0.013523,0.002678,0.000431,0.000823
70851000,0.0324,0.013523,0.002678,0.000431,0.000823
70852000,0.0324,0.013523,0.002678,0.000431,0.000823
70853000,0.0324,0.013523,0.002678,0.000431,0.000940
70854000,0.0324,0.013523,0.002678,0.000431,0.000705
70855000,0.0324,0.013523,0.002678,0.000431,0.000940
70856000,0.0324,0.013523,0.002678,0.000431,0.000705
70857000,0.0324,0.013523,0.002678,0.000431,0.000940
70858000,0.0324,0.013523,0.002678,0.000431,0.000940
70859000,0.0324,0.013523,0.002678,0.000431,0.000705
70860000,0.0324,0.013523,0.002678,0.000431,0.000940
70861000,0.0324,0.013523,0.002678,0.000431,0.000705
70862000,0.0324,0.013523,0.002678,0.000431,0.000940
70863000,0.0324,0.013523,0.002678,0.000431,0.000823
70864000,0.0324,0.013523,0.002678,0.000431,0.000823
70865000,0.0324,0.013523,0.002678,0.000431,0.000823
70866000,0.0324,0.013523,0.002678,0.000431,0.000823
70867000,0.0324,0.013523,0.002678,0.000431,0.000823
70868000,0.0324,0.013523,0.002678,0.000431,0.000823
70869000,0.0324,0.013523,0.002678,0.000431,0.000940
70870000,0.0324,0.013523,0.002678,0.000431,0.000705
70871000,0.0324,0.013523,0.002678,0.000431,0.000823
70872000,0.0324,0.013523,0.002678,0.000431,0.000940
70873000,0.0324,0.013523,0.002678,0.000431,0.000823
70874000,0.0324,0.013523,0.002678,0.000431,0.000823
70875000,0.0324,0.013523,0.002678,0.000431,0.000823
70876000,0.0324,0.013523,0.002678,0.000431,0.000823
70877000,0.0324,0.013523,0.002678,0.000431,0.000823
70878000,0.0324,0.013523,0.002678,0.000431,0.000940
70879000,0.0324,0.013523,0.002678,0.000431,0.000705
70880000,0.0324,0.013523,0.002678,0.000431,0.000940
70881000,0.0324,0.013523,0.002678,0.000431,0.000705
70882000,0.0324,0.013523,0.002678,0.000431,0.000940
70883000,0.0324,0.013523,0.002678,0.000431,0.000940
70884000,0.0324,0.013523,0.002678,0.000431,0.000705
70885000,0.0324,0.013523,0.002678,0.000431,0.000940
70886000,0.0324,0.013523,0.002678,0.000431,0.000705
70887000,0.0324,0.013523,0.002678,0.000431,0.000940
70888000,0.0324,0.013523,0.002678,0.000431,0.000823
70889000,0.0324,0.013523,0.002678,0.000431,0.000823
70890000,0.0324,0.013523,0.002678,0.000431,0.000823
70891000,0.0324,0.013523,0.002678,0.000431,0.000823
70892000,0.0324,0.013523,0.002678,0.000431,0.000940
70893000,0.0324,0.013523,0.002678,0.000431,0.000705
70894000,0.0324,0.013523,0.002678,0.000431,0.000940
70895000,0.0324,0.013523,0.002678,0.000431,0.000823
70896000,0.0324,0.013523,0.002678,0.000431,0.000823
70897000,0.0324,0.013523,0.002678,0.000431,0.000823
70898000,0.0324,0.013523,0.002678,0.000431,0.000823
70899000,0.0324,0.013523,0.002678,0.000431,0.000823
70900000,0.0324,0.013523,0.002678,0.000431,0.000823
70901000,0.0324,0.013523,0.002678,0.000431,0.000940
70902000,0.0324,0.013523,0.002678,0.000431,0.000705
70903000,0.0324,0.013523,0.002678,0.000431,0.000940
70904000,0.0324,0.013523,0.002678,0.000431,0.000705
70905000,0.0324,0.013523,0.002678,0.000431,0.000940
70906000,0.0324,0.013523,0.002678,0.000431,0.000940
70907000,0.0324,0.013523,0.002678,0.000431,0.000705
70908000,0.0324,0.013523,0.002678,0.000431,0.000940
70909000,0.0324,0.013523,0.002678,0.000431,0.000705
70910000,0.0324,0.013523,0.002678,0.000431,0.000940
70911000,0.0324,0.013523,0.002678,0.000431,0.000823
70912000,0.0324,0.013523,0.002678,0.000431,0.000823
70913000,0.0324,0.013523,0.002678,0.000431,0.000940
70914000,0.0324,0.013523,0.002678,0.000431,0.000705
70915000,0.0324,0.013523,0.002678,0.000431,0.000940
70916000,0.0324,0.013523,0.002678,0.000431,0.000823
70917000,0.0324,0.013523,0.002678,0.000431,0.000823
70918000,0.0324,0.013523,0.002678,0.000431,0.000823
70919000,0.0324,0.013523,0.002678,0.000431,0.000823
70920000,0.0324,0.013523,0.002678,0.000431,0.000940
70921000,0.0324,0.013523,0.002678,0.000431,0.000705
70922000,0.0324,0.013523,0.002678,0.000431,0.000940
70923000,0.0324,0.013523,0.002678,0.000431,0.000705
70924000,0.0324,0.013523,0.002678,0.000431,0.000823
70925000,0.0324,0.013523,0.002678,0.000431,0.000940
70926000,0.0324,0.013523,0.002678,0.000431,0.000823
70927000,0.0324,0.013523,0.002678,0.000431,0.000823
70928000,0.0324,0.013523,0.002678,0.000431,0.000823
70929000,0.0324,0.013523,0.002678,0.000431,0.000823
70930000,0.0324,0.013523,0.002678,0.000431,0.000823
70931000,0.0324,0.013523,0.002678,0.000431,0.000940
70932000,0.0324,0.013523,0.002678,0.000431,0.000823
70933000,0.0324,0.013523,0.002678,0.000431,0.000823
70934000,0.0324,0.013523,0.002678,0.000431,0.000705
70935000,0.0324,0.013523,0.002678,0.000431,0.000940
70936000,0.0324,0.013523,0.002678,0.000431,0.000940
70937000,0.0324,0.013523,0.002678,0.000431,0.000705
70938000,0.0324,0.013523,0.002678,0.000431,0.000940
70939000,0.0324,0.013523,0.002678,0.000431,0.000705
70940000,0.0324,0.013523,0.002678,0.000431,0.000940
70941000,0.0324,0.013523,0.002678,0.000431,0.000823
70942000,0.0324,0.013523,0.002678,0.000431,0.000823
70943000,0.0324,0.013523,0.002678,0.000431,0.000940
70944000,0.0324,0.013523,0.002678,0.000431,0.000705
70945000,0.0324,0.013523,0.002678,0.000431,0.000940
70946000,0.0324,0.013523,0.002678,0.000431,0.000823
70947000,0.0324,0.013523,0.002678,0.000431,0.000823
70948000,0.0324,0.013523,0.002678,0.000431,0.000823
70949000,0.0324,0.013523,0.002678,0.000431,0.000823
70950000,0.0324,0.013523,0.002678,0.000431,0.000940
70951000,0.0324,0.013523,0.002678,0.000431,0.000705
70952000,0.0324,0.013523,0.002678,0.000431,0.000940
70953000,0.0324,0.013523,0.002678,0.000431,0.000823
70954000,0.0324,0.013523,0.002678,0.000431,0.000823
70955000,0.0324,0.013523,0.002678,0.000431,0.000823
70956000,0.0324,0.013523,0.002678,0.000431,0.000823
70957000,0.0324,0.013523,0.002678,0.000431,0.000940
70958000,0.0324,0.013523,0.002678,0.000431,0.000705
70959000,0.0324,0.013523,0.002678,0.000431,0.000940
70960000,0.0324,0.013523,0.002678,0.000431,0.000823
70961000,0.0324,0.013523,0.002678,0.000431,0.000823
70962000,0.0324,0.013523,0.002678,0.000431,0.000705
70963000,0.0324,0.013523,0.002678,0.000431,0.000940
70964000,0.0324,0.013523,0.002678,0.000431,0.000940
70965000,0.0324,0.013523,0.002678,0.000431,0.000705
70966000,0.0324,0.013523,0.002678,0.000431,0.000940
70967000,0.0324,0.013523,0.002678,0.000431,0.000705
70968000,0.0324,0.013523,0.002678,0.000431,0.000940
70969000,0.0324,0.013523,0.002678,0.000431,0.000940
70970000,0.0324,0.013523,0.002678,0.000431,0.000705
70971000,0.0324,0.013523,0.002678,0.000431,0.000940
70972000,0.0324,0.013523,0.002678,0.000431,0.000705
70973000,0.0324,0.013523,0.002678,0.000431,0.000940
70974000,0.0324,0.013523,0.002678,0.000431,0.000823
70975000,0.0324,0.013523,0.002678,0.000431,0.000705
70976000,0.0324,0.013523,0.002678,0.000431,0.013751
70977000,0.0324,0.013523,0.002678,0.000431,0.486684
70978000,0.0324,0.013523,0.002678,0.000431,0.604330
70979000,0.0324,0.013523,0.002678,0.000431,0.133982
70980000,0.0324,0.013523,0.002678,0.000431,0.130691
70981000,0.0324,0.013523,0.002678,0.000431,0.194392
70982000,0.0324,0.013523,0.002678,0.000431,0.533460
70983000,0.0324,0.013523,0.002678,0.000431,0.240110
70984000,0.0324,0.013523,0.002678,0.000431,0.233411
70985000,0.0324,0.013523,0.002678,0.000431,0.228827
70986000,0.0324,0.013523,0.002678,0.000431,0.136098
70987000,0.0324,0.013523,0.002678,0.000431,0.149848
70988000,0.0324,0.013523,0.002678,0.000431,0.127636
70989000,0.0324,0.013523,0.002678,0.000431,0.296289
70990000,0.0324,0.013523,0.002678,0.000431,0.303575
70991000,0.0324,0.013523,0.002678,0.000431,0.032908
70992000,0.0324,0.013523,0.002678,0.000431,0.022095
70993000,0.0324,0.013523,0.002678,0.000431,0.023506
70994000,0.0324,0.013523,0.002678,0.000431,0.018334
70995000,0.0324,0.013523,0.002678,0.000431,0.021038
70996000,0.0324,0.013523,0.002678,0.000431,0.011400
70997000,0.0324,0.013523,0.002678,0.000431,0.012928
70998000,0.0324,0.013523,0.002678,0.000431,0.011753
70999000,0.0324,0.013523,0.002678,0.000431,0.012928
