Cycle,Area(mm^2),PeakDynamic(W),SubthresholdLeakage(W),GateLeakage(W),RunTimeDynamic(W)
78000000,0.0324,0.013523,0.002678,0.000431,0.012223
78001000,0.0324,0.013523,0.002678,0.000431,0.015749
78002000,0.0324,0.013523,0.002678,0.000431,0.011988
78003000,0.0324,0.013523,0.002678,0.000431,0.014809
78004000,0.0324,0.013523,0.002678,0.000431,0.011400
78005000,0.0324,0.013523,0.002678,0.000431,0.014103
78006000,0.0324,0.013523,0.002678,0.000431,0.010578
78007000,0.0324,0.013523,0.002678,0.000431,0.009990
78008000,0.0324,0.013523,0.002678,0.000431,0.011400
78009000,0.0324,0.013523,0.002678,0.000431,0.010930
78010000,0.0324,0.013523,0.002678,0.000431,0.009050
78011000,0.0324,0.013523,0.002678,0.000431,0.010695
78012000,0.0324,0.013523,0.002678,0.000431,0.009520
78013000,0.0324,0.013523,0.002678,0.000431,0.014103
78014000,0.0324,0.013523,0.002678,0.000431,0.003878
78015000,0.0324,0.013523,0.002678,0.000431,0.003996
78016000,0.0324,0.013523,0.002678,0.000431,0.004466
78017000,0.0324,0.013523,0.002678,0.000431,0.005289
78018000,0.0324,0.013523,0.002678,0.000431,0.003173
78019000,0.0324,0.013523,0.002678,0.000431,0.003408
78020000,0.0324,0.013523,0.002678,0.000431,0.003526
78021000,0.0324,0.013523,0.002678,0.000431,0.003173
78022000,0.0324,0.013523,0.002678,0.000431,0.003173
78023000,0.0324,0.013523,0.002678,0.000431,0.004819
78024000,0.0324,0.013523,0.002678,0.000431,0.002116
78025000,0.0324,0.013523,0.002678,0.000431,0.002586
78026000,0.0324,0.013523,0.002678,0.000431,0.002821
78027000,0.0324,0.013523,0.002678,0.000431,0.002116
78028000,0.0324,0.013523,0.002678,0.000431,0.002703
78029000,0.0324,0.013523,0.002678,0.000431,0.002116
78030000,0.0324,0.013523,0.002678,0.000431,0.002703
78031000,0.0324,0.013523,0.002678,0.000431,0.002468
78032000,0.0324,0.013523,0.002678,0.000431,0.002351
78033000,0.0324,0.013523,0.002678,0.000431,0.002468
78034000,0.0324,0.013523,0.002678,0.000431,0.002468
78035000,0.0324,0.013523,0.002678,0.000431,0.002586
78036000,0.0324,0.013523,0.002678,0.000431,0.002233
78037000,0.0324,0.013523,0.002678,0.000431,0.002586
78038000,0.0324,0.013523,0.002678,0.000431,0.002351
78039000,0.0324,0.013523,0.002678,0.000431,0.002233
78040000,0.0324,0.013523,0.002678,0.000431,0.002586
78041000,0.0324,0.013523,0.002678,0.000431,0.005171
78042000,0.0324,0.013523,0.002678,0.000431,0.001410
78043000,0.0324,0.013523,0.002678,0.000431,0.001645
78044000,0.0324,0.013523,0.002678,0.000431,0.001410
78045000,0.0324,0.013523,0.002678,0.000431,0.001645
78046000,0.0324,0.013523,0.002678,0.000431,0.001880
78047000,0.0324,0.013523,0.002678,0.000431,0.001175
78048000,0.0324,0.013523,0.002678,0.000431,0.001880
78049000,0.0324,0.013523,0.002678,0.000431,0.001410
78050000,0.0324,0.013523,0.002678,0.000431,0.001645
78051000,0.0324,0.013523,0.002678,0.000431,0.001645
78052000,0.0324,0.013523,0.002678,0.000431,0.001410
78053000,0.0324,0.013523,0.002678,0.000431,0.001880
78054000,0.0324,0.013523,0.002678,0.000431,0.001410
78055000,0.0324,0.013523,0.002678,0.000431,0.001645
78056000,0.0324,0.013523,0.002678,0.000431,0.001410
78057000,0.0324,0.013523,0.002678,0.000431,0.001645
78058000,0.0324,0.013523,0.002678,0.000431,0.001645
78059000,0.0324,0.013523,0.002678,0.000431,0.001645
78060000,0.0324,0.013523,0.002678,0.000431,0.001410
78061000,0.0324,0.013523,0.002678,0.000431,0.001645
78062000,0.0324,0.013523,0.002678,0.000431,0.001410
78063000,0.0324,0.013523,0.002678,0.000431,0.001645
78064000,0.0324,0.013523,0.002678,0.000431,0.001880
78065000,0.0324,0.013523,0.002678,0.000431,0.001175
78066000,0.0324,0.013523,0.002678,0.000431,0.001880
78067000,0.0324,0.013523,0.002678,0.000431,0.001293
78068000,0.0324,0.013523,0.002678,0.000431,0.001763
78069000,0.0324,0.013523,0.002678,0.000431,0.001645
78070000,0.0324,0.013523,0.002678,0.000431,0.001645
78071000,0.0324,0.013523,0.002678,0.000431,0.072397
78072000,0.0324,0.013523,0.002678,0.000431,0.590227
78073000,0.0324,0.013523,0.002678,0.000431,0.572832
78074000,0.0324,0.013523,0.002678,0.000431,0.134452
78075000,0.0324,0.013523,0.002678,0.000431,0.133042
78076000,0.0324,0.013523,0.002678,0.000431,0.569424
78077000,0.0324,0.013523,0.002678,0.000431,0.272430
78078000,0.0324,0.013523,0.002678,0.000431,0.235997
78079000,0.0324,0.013523,0.002678,0.000431,0.308982
78080000,0.0324,0.013523,0.002678,0.000431,0.144442
78081000,0.0324,0.013523,0.002678,0.000431,0.181228
78082000,0.0324,0.013523,0.002678,0.000431,0.083210
78083000,0.0324,0.013523,0.002678,0.000431,0.495029
78084000,0.0324,0.013523,0.002678,0.000431,0.192864
78085000,0.0324,0.013523,0.002678,0.000431,0.123287
78086000,0.0324,0.013523,0.002678,0.000431,0.105305
78087000,0.0324,0.013523,0.002678,0.000431,0.097548
78088000,0.0324,0.013523,0.002678,0.000431,0.080742
78089000,0.0324,0.013523,0.002678,0.000431,0.070517
78090000,0.0324,0.013523,0.002678,0.000431,0.074395
78091000,0.0324,0.013523,0.002678,0.000431,0.056766
78092000,0.0324,0.013523,0.002678,0.000431,0.054533
78093000,0.0324,0.013523,0.002678,0.000431,0.050185
78094000,0.0324,0.013523,0.002678,0.000431,0.041605
78095000,0.0324,0.013523,0.002678,0.000431,0.033731
78096000,0.0324,0.013523,0.002678,0.000431,0.034553
78097000,0.0324,0.013523,0.002678,0.000431,0.031380
78098000,0.0324,0.013523,0.002678,0.000431,0.034318
78099000,0.0324,0.013523,0.002678,0.000431,0.027384
78100000,0.0324,0.013523,0.002678,0.000431,0.028442
78101000,0.0324,0.013523,0.002678,0.000431,0.027149
78102000,0.0324,0.013523,0.002678,0.000431,0.017277
78103000,0.0324,0.013523,0.002678,0.000431,0.017864
78104000,0.0324,0.013523,0.002678,0.000431,0.021978
78105000,0.0324,0.013523,0.002678,0.000431,0.011635
78106000,0.0324,0.013523,0.002678,0.000431,0.014221
78107000,0.0324,0.013523,0.002678,0.000431,0.014221
78108000,0.0324,0.013523,0.002678,0.000431,0.009520
78109000,0.0324,0.013523,0.002678,0.000431,0.010813
78110000,0.0324,0.013523,0.002678,0.000431,0.013751
78111000,0.0324,0.013523,0.002678,0.000431,0.010342
78112000,0.0324,0.013523,0.002678,0.000431,0.007404
78113000,0.0324,0.013523,0.002678,0.000431,0.006347
78114000,0.0324,0.013523,0.002678,0.000431,0.005406
78115000,0.0324,0.013523,0.002678,0.000431,0.005876
78116000,0.0324,0.013523,0.002678,0.000431,0.006111
78117000,0.0324,0.013523,0.002678,0.000431,0.007287
78118000,0.0324,0.013523,0.002678,0.000431,0.006582
78119000,0.0324,0.013523,0.002678,0.000431,0.005524
78120000,0.0324,0.013523,0.002678,0.000431,0.003761
78121000,0.0324,0.013523,0.002678,0.000431,0.003173
78122000,0.0324,0.013523,0.002678,0.000431,0.003408
78123000,0.0324,0.013523,0.002678,0.000431,0.003526
78124000,0.0324,0.013523,0.002678,0.000431,0.002938
78125000,0.0324,0.013523,0.002678,0.000431,0.003643
78126000,0.0324,0.013523,0.002678,0.000431,0.003291
78127000,0.0324,0.013523,0.002678,0.000431,0.003408
78128000,0.0324,0.013523,0.002678,0.000431,0.003173
78129000,0.0324,0.013523,0.002678,0.000431,0.003291
78130000,0.0324,0.013523,0.002678,0.000431,0.003526
78131000,0.0324,0.013523,0.002678,0.000431,0.003291
78132000,0.0324,0.013523,0.002678,0.000431,0.005054
78133000,0.0324,0.013523,0.002678,0.000431,0.002468
78134000,0.0324,0.013523,0.002678,0.000431,0.002468
78135000,0.0324,0.013523,0.002678,0.000431,0.002468
78136000,0.0324,0.013523,0.002678,0.000431,0.002586
78137000,0.0324,0.013523,0.002678,0.000431,0.002468
78138000,0.0324,0.013523,0.002678,0.000431,0.002586
78139000,0.0324,0.013523,0.002678,0.000431,0.002586
78140000,0.0324,0.013523,0.002678,0.000431,0.002351
78141000,0.0324,0.013523,0.002678,0.000431,0.002703
78142000,0.0324,0.013523,0.002678,0.000431,0.002351
78143000,0.0324,0.013523,0.002678,0.000431,0.002586
78144000,0.0324,0.013523,0.002678,0.000431,0.002586
78145000,0.0324,0.013523,0.002678,0.000431,0.002351
78146000,0.0324,0.013523,0.002678,0.000431,0.002703
78147000,0.0324,0.013523,0.002678,0.000431,0.002351
78148000,0.0324,0.013523,0.002678,0.000431,0.002586
78149000,0.0324,0.013523,0.002678,0.000431,0.002468
78150000,0.0324,0.013523,0.002678,0.000431,0.004349
78151000,0.0324,0.013523,0.002678,0.000431,0.001645
78152000,0.0324,0.013523,0.002678,0.000431,0.001645
78153000,0.0324,0.013523,0.002678,0.000431,0.001763
78154000,0.0324,0.013523,0.002678,0.000431,0.001645
78155000,0.0324,0.013523,0.002678,0.000431,0.001645
78156000,0.0324,0.013523,0.002678,0.000431,0.001763
78157000,0.0324,0.013523,0.002678,0.000431,0.001410
78158000,0.0324,0.013523,0.002678,0.000431,0.001880
78159000,0.0324,0.013523,0.002678,0.000431,0.001763
78160000,0.0324,0.013523,0.002678,0.000431,0.001763
78161000,0.0324,0.013523,0.002678,0.000431,0.001880
78162000,0.0324,0.013523,0.002678,0.000431,0.001528
78163000,0.0324,0.013523,0.002678,0.000431,0.001880
78164000,0.0324,0.013523,0.002678,0.000431,0.003996
78165000,0.0324,0.013523,0.002678,0.000431,0.000823
78166000,0.0324,0.013523,0.002678,0.000431,0.000823
78167000,0.0324,0.013523,0.002678,0.000431,0.000823
78168000,0.0324,0.013523,0.002678,0.000431,0.000940
78169000,0.0324,0.013523,0.002678,0.000431,0.000705
78170000,0.0324,0.013523,0.002678,0.000431,0.000940
78171000,0.0324,0.013523,0.002678,0.000431,0.000823
78172000,0.0324,0.013523,0.002678,0.000431,0.000823
78173000,0.0324,0.013523,0.002678,0.000431,0.000823
78174000,0.0324,0.013523,0.002678,0.000431,0.000823
78175000,0.0324,0.013523,0.002678,0.000431,0.000823
78176000,0.0324,0.013523,0.002678,0.000431,0.000823
78177000,0.0324,0.013523,0.002678,0.000431,0.000823
78178000,0.0324,0.013523,0.002678,0.000431,0.000823
78179000,0.0324,0.013523,0.002678,0.000431,0.000940
78180000,0.0324,0.013523,0.002678,0.000431,0.000823
78181000,0.0324,0.013523,0.002678,0.000431,0.000823
78182000,0.0324,0.013523,0.002678,0.000431,0.000705
78183000,0.0324,0.013523,0.002678,0.000431,0.000940
78184000,0.0324,0.013523,0.002678,0.000431,0.000940
78185000,0.0324,0.013523,0.002678,0.000431,0.000705
78186000,0.0324,0.013523,0.002678,0.000431,0.000940
78187000,0.0324,0.013523,0.002678,0.000431,0.164187
78188000,0.0324,0.013523,0.002678,0.000431,0.581529
78189000,0.0324,0.013523,0.002678,0.000431,0.529817
78190000,0.0324,0.013523,0.002678,0.000431,0.134452
78191000,0.0324,0.013523,0.002678,0.000431,0.132102
78192000,0.0324,0.013523,0.002678,0.000431,0.585290
78193000,0.0324,0.013523,0.002678,0.000431,0.273018
78194000,0.0324,0.013523,0.002678,0.000431,0.277602
78195000,0.0324,0.013523,0.002678,0.000431,0.252568
78196000,0.0324,0.013523,0.002678,0.000431,0.141034
78197000,0.0324,0.013523,0.002678,0.000431,0.153022
78198000,0.0324,0.013523,0.002678,0.000431,0.191806
78199000,0.0324,0.013523,0.002678,0.000431,0.416520
78200000,0.0324,0.013523,0.002678,0.000431,0.088616
78201000,0.0324,0.013523,0.002678,0.000431,0.074630
78202000,0.0324,0.013523,0.002678,0.000431,0.059704
78203000,0.0324,0.013523,0.002678,0.000431,0.053593
78204000,0.0324,0.013523,0.002678,0.000431,0.050185
78205000,0.0324,0.013523,0.002678,0.000431,0.040077
78206000,0.0324,0.013523,0.002678,0.000431,0.040547
78207000,0.0324,0.013523,0.002678,0.000431,0.033025
78208000,0.0324,0.013523,0.002678,0.000431,0.035376
78209000,0.0324,0.013523,0.002678,0.000431,0.024681
78210000,0.0324,0.013523,0.002678,0.000431,0.022918
78211000,0.0324,0.013523,0.002678,0.000431,0.022918
78212000,0.0324,0.013523,0.002678,0.000431,0.019980
78213000,0.0324,0.013523,0.002678,0.000431,0.018217
78214000,0.0324,0.013523,0.002678,0.000431,0.019510
78215000,0.0324,0.013523,0.002678,0.000431,0.014221
78216000,0.0324,0.013523,0.002678,0.000431,0.015749
78217000,0.0324,0.013523,0.002678,0.000431,0.012458
78218000,0.0324,0.013523,0.002678,0.000431,0.014456
78219000,0.0324,0.013523,0.002678,0.000431,0.009637
78220000,0.0324,0.013523,0.002678,0.000431,0.009872
78221000,0.0324,0.013523,0.002678,0.000431,0.009167
78222000,0.0324,0.013523,0.002678,0.000431,0.010930
78223000,0.0324,0.013523,0.002678,0.000431,0.010930
78224000,0.0324,0.013523,0.002678,0.000431,0.007052
78225000,0.0324,0.013523,0.002678,0.000431,0.007287
78226000,0.0324,0.013523,0.002678,0.000431,0.007169
78227000,0.0324,0.013523,0.002678,0.000431,0.009402
78228000,0.0324,0.013523,0.002678,0.000431,0.006464
78229000,0.0324,0.013523,0.002678,0.000431,0.007522
78230000,0.0324,0.013523,0.002678,0.000431,0.008109
78231000,0.0324,0.013523,0.002678,0.000431,0.006347
78232000,0.0324,0.013523,0.002678,0.000431,0.003408
78233000,0.0324,0.013523,0.002678,0.000431,0.003878
78234000,0.0324,0.013523,0.002678,0.000431,0.003408
78235000,0.0324,0.013523,0.002678,0.000431,0.003643
78236000,0.0324,0.013523,0.002678,0.000431,0.003643
78237000,0.0324,0.013523,0.002678,0.000431,0.003291
78238000,0.0324,0.013523,0.002678,0.000431,0.003643
78239000,0.0324,0.013523,0.002678,0.000431,0.003878
78240000,0.0324,0.013523,0.002678,0.000431,0.003291
78241000,0.0324,0.013523,0.002678,0.000431,0.003643
78242000,0.0324,0.013523,0.002678,0.000431,0.003408
78243000,0.0324,0.013523,0.002678,0.000431,0.003408
78244000,0.0324,0.013523,0.002678,0.000431,0.003761
78245000,0.0324,0.013523,0.002678,0.000431,0.003291
78246000,0.0324,0.013523,0.002678,0.000431,0.003643
78247000,0.0324,0.013523,0.002678,0.000431,0.003643
78248000,0.0324,0.013523,0.002678,0.000431,0.003408
78249000,0.0324,0.013523,0.002678,0.000431,0.003761
78250000,0.0324,0.013523,0.002678,0.000431,0.003291
78251000,0.0324,0.013523,0.002678,0.000431,0.003526
78252000,0.0324,0.013523,0.002678,0.000431,0.003643
78253000,0.0324,0.013523,0.002678,0.000431,0.003291
78254000,0.0324,0.013523,0.002678,0.000431,0.003878
78255000,0.0324,0.013523,0.002678,0.000431,0.003291
78256000,0.0324,0.013523,0.002678,0.000431,0.003761
78257000,0.0324,0.013523,0.002678,0.000431,0.003526
78258000,0.0324,0.013523,0.002678,0.000431,0.004349
78259000,0.0324,0.013523,0.002678,0.000431,0.006582
78260000,0.0324,0.013523,0.002678,0.000431,0.001763
78261000,0.0324,0.013523,0.002678,0.000431,0.001880
78262000,0.0324,0.013523,0.002678,0.000431,0.004231
78263000,0.0324,0.013523,0.002678,0.000431,0.000705
78264000,0.0324,0.013523,0.002678,0.000431,0.014573
78265000,0.0324,0.013523,0.002678,0.000431,0.525939
78266000,0.0324,0.013523,0.002678,0.000431,0.597631
78267000,0.0324,0.013523,0.002678,0.000431,0.134452
78268000,0.0324,0.013523,0.002678,0.000431,0.132572
78269000,0.0324,0.013523,0.002678,0.000431,0.438028
78270000,0.0324,0.013523,0.002678,0.000431,0.337776
78271000,0.0324,0.013523,0.002678,0.000431,0.229533
78272000,0.0324,0.013523,0.002678,0.000431,0.357168
78273000,0.0324,0.013523,0.002678,0.000431,0.162424
78274000,0.0324,0.013523,0.002678,0.000431,0.147380
78275000,0.0324,0.013523,0.002678,0.000431,0.113532
78276000,0.0324,0.013523,0.002678,0.000431,0.343535
78277000,0.0324,0.013523,0.002678,0.000431,0.285946
78278000,0.0324,0.013523,0.002678,0.000431,0.084855
78279000,0.0324,0.013523,0.002678,0.000431,0.053475
78280000,0.0324,0.013523,0.002678,0.000431,0.048187
78281000,0.0324,0.013523,0.002678,0.000431,0.038314
78282000,0.0324,0.013523,0.002678,0.000431,0.037844
78283000,0.0324,0.013523,0.002678,0.000431,0.027737
78284000,0.0324,0.013523,0.002678,0.000431,0.028677
78285000,0.0324,0.013523,0.002678,0.000431,0.020920
78286000,0.0324,0.013523,0.002678,0.000431,0.018569
78287000,0.0324,0.013523,0.002678,0.000431,0.020215
78288000,0.0324,0.013523,0.002678,0.000431,0.014456
78289000,0.0324,0.013523,0.002678,0.000431,0.011518
78290000,0.0324,0.013523,0.002678,0.000431,0.013046
78291000,0.0324,0.013523,0.002678,0.000431,0.010342
78292000,0.0324,0.013523,0.002678,0.000431,0.009637
78293000,0.0324,0.013523,0.002678,0.000431,0.008227
78294000,0.0324,0.013523,0.002678,0.000431,0.007639
78295000,0.0324,0.013523,0.002678,0.000431,0.009872
78296000,0.0324,0.013523,0.002678,0.000431,0.006464
78297000,0.0324,0.013523,0.002678,0.000431,0.003526
78298000,0.0324,0.013523,0.002678,0.000431,0.003408
78299000,0.0324,0.013523,0.002678,0.000431,0.003056
78300000,0.0324,0.013523,0.002678,0.000431,0.002938
78301000,0.0324,0.013523,0.002678,0.000431,0.005524
78302000,0.0324,0.013523,0.002678,0.000431,0.002586
78303000,0.0324,0.013523,0.002678,0.000431,0.002351
78304000,0.0324,0.013523,0.002678,0.000431,0.002351
78305000,0.0324,0.013523,0.002678,0.000431,0.002468
78306000,0.0324,0.013523,0.002678,0.000431,0.002351
78307000,0.0324,0.013523,0.002678,0.000431,0.002351
78308000,0.0324,0.013523,0.002678,0.000431,0.002586
78309000,0.0324,0.013523,0.002678,0.000431,0.002116
78310000,0.0324,0.013523,0.002678,0.000431,0.005171
78311000,0.0324,0.013523,0.002678,0.000431,0.001528
78312000,0.0324,0.013523,0.002678,0.000431,0.001645
78313000,0.0324,0.013523,0.002678,0.000431,0.001410
78314000,0.0324,0.013523,0.002678,0.000431,0.001645
78315000,0.0324,0.013523,0.002678,0.000431,0.001880
78316000,0.0324,0.013523,0.002678,0.000431,0.001175
78317000,0.0324,0.013523,0.002678,0.000431,0.001175
78318000,0.0324,0.013523,0.002678,0.000431,0.205792
78319000,0.0324,0.013523,0.002678,0.000431,0.523235
78320000,0.0324,0.013523,0.002678,0.000431,0.473051
78321000,0.0324,0.013523,0.002678,0.000431,0.133512
78322000,0.0324,0.013523,0.002678,0.000431,0.133512
78323000,0.0324,0.013523,0.002678,0.000431,0.606916
78324000,0.0324,0.013523,0.002678,0.000431,0.267377
78325000,0.0324,0.013523,0.002678,0.000431,0.290295
78326000,0.0324,0.013523,0.002678,0.000431,0.270315
78327000,0.0324,0.013523,0.002678,0.000431,0.139153
78328000,0.0324,0.013523,0.002678,0.000431,0.136803
78329000,0.0324,0.013523,0.002678,0.000431,0.224714
78330000,0.0324,0.013523,0.002678,0.000431,0.378793
78331000,0.0324,0.013523,0.002678,0.000431,0.057001
78332000,0.0324,0.013523,0.002678,0.000431,0.047129
78333000,0.0324,0.013523,0.002678,0.000431,0.040547
78334000,0.0324,0.013523,0.002678,0.000431,0.039372
78335000,0.0324,0.013523,0.002678,0.000431,0.033731
78336000,0.0324,0.013523,0.002678,0.000431,0.026561
78337000,0.0324,0.013523,0.002678,0.000431,0.021743
78338000,0.0324,0.013523,0.002678,0.000431,0.021508
78339000,0.0324,0.013523,0.002678,0.000431,0.016571
78340000,0.0324,0.013523,0.002678,0.000431,0.015984
78341000,0.0324,0.013523,0.002678,0.000431,0.018217
78342000,0.0324,0.013523,0.002678,0.000431,0.012223
78343000,0.0324,0.013523,0.002678,0.000431,0.010695
78344000,0.0324,0.013523,0.002678,0.000431,0.008345
78345000,0.0324,0.013523,0.002678,0.000431,0.008580
78346000,0.0324,0.013523,0.002678,0.000431,0.006699
78347000,0.0324,0.013523,0.002678,0.000431,0.006934
78348000,0.0324,0.013523,0.002678,0.000431,0.006111
78349000,0.0324,0.013523,0.002678,0.000431,0.005524
78350000,0.0324,0.013523,0.002678,0.000431,0.005759
78351000,0.0324,0.013523,0.002678,0.000431,0.005406
78352000,0.0324,0.013523,0.002678,0.000431,0.005759
78353000,0.0324,0.013523,0.002678,0.000431,0.005289
78354000,0.0324,0.013523,0.002678,0.000431,0.005641
78355000,0.0324,0.013523,0.002678,0.000431,0.005759
78356000,0.0324,0.013523,0.002678,0.000431,0.005641
78357000,0.0324,0.013523,0.002678,0.000431,0.004819
78358000,0.0324,0.013523,0.002678,0.000431,0.006111
78359000,0.0324,0.013523,0.002678,0.000431,0.005759
78360000,0.0324,0.013523,0.002678,0.000431,0.005406
78361000,0.0324,0.013523,0.002678,0.000431,0.005524
78362000,0.0324,0.013523,0.002678,0.000431,0.003878
78363000,0.0324,0.013523,0.002678,0.000431,0.004584
78364000,0.0324,0.013523,0.002678,0.000431,0.004466
78365000,0.0324,0.013523,0.002678,0.000431,0.003996
78366000,0.0324,0.013523,0.002678,0.000431,0.004231
78367000,0.0324,0.013523,0.002678,0.000431,0.004113
78368000,0.0324,0.013523,0.002678,0.000431,0.004584
78369000,0.0324,0.013523,0.002678,0.000431,0.004231
78370000,0.0324,0.013523,0.002678,0.000431,0.004819
78371000,0.0324,0.013523,0.002678,0.000431,0.008109
78372000,0.0324,0.013523,0.002678,0.000431,0.002703
78373000,0.0324,0.013523,0.002678,0.000431,0.002468
78374000,0.0324,0.013523,0.002678,0.000431,0.002468
78375000,0.0324,0.013523,0.002678,0.000431,0.002586
78376000,0.0324,0.013523,0.002678,0.000431,0.002351
78377000,0.0324,0.013523,0.002678,0.000431,0.002468
78378000,0.0324,0.013523,0.002678,0.000431,0.002116
78379000,0.0324,0.013523,0.002678,0.000431,0.002468
78380000,0.0324,0.013523,0.002678,0.000431,0.002351
78381000,0.0324,0.013523,0.002678,0.000431,0.002116
78382000,0.0324,0.013523,0.002678,0.000431,0.002586
78383000,0.0324,0.013523,0.002678,0.000431,0.001998
78384000,0.0324,0.013523,0.002678,0.000431,0.002468
78385000,0.0324,0.013523,0.002678,0.000431,0.001880
78386000,0.0324,0.013523,0.002678,0.000431,0.001528
78387000,0.0324,0.013523,0.002678,0.000431,0.001763
78388000,0.0324,0.013523,0.002678,0.000431,0.001645
78389000,0.0324,0.013523,0.002678,0.000431,0.001645
78390000,0.0324,0.013523,0.002678,0.000431,0.001645
78391000,0.0324,0.013523,0.002678,0.000431,0.001645
78392000,0.0324,0.013523,0.002678,0.000431,0.001763
78393000,0.0324,0.013523,0.002678,0.000431,0.001645
78394000,0.0324,0.013523,0.002678,0.000431,0.001763
78395000,0.0324,0.013523,0.002678,0.000431,0.001528
78396000,0.0324,0.013523,0.002678,0.000431,0.001528
78397000,0.0324,0.013523,0.002678,0.000431,0.001880
78398000,0.0324,0.013523,0.002678,0.000431,0.001763
78399000,0.0324,0.013523,0.002678,0.000431,0.001528
78400000,0.0324,0.013523,0.002678,0.000431,0.001763
78401000,0.0324,0.013523,0.002678,0.000431,0.001410
78402000,0.0324,0.013523,0.002678,0.000431,0.001880
78403000,0.0324,0.013523,0.002678,0.000431,0.001763
78404000,0.0324,0.013523,0.002678,0.000431,0.001528
78405000,0.0324,0.013523,0.002678,0.000431,0.001880
78406000,0.0324,0.013523,0.002678,0.000431,0.001410
78407000,0.0324,0.013523,0.002678,0.000431,0.001880
78408000,0.0324,0.013523,0.002678,0.000431,0.001645
78409000,0.0324,0.013523,0.002678,0.000431,0.003526
78410000,0.0324,0.013523,0.002678,0.000431,0.000940
78411000,0.0324,0.013523,0.002678,0.000431,0.000823
78412000,0.0324,0.013523,0.002678,0.000431,0.000823
78413000,0.0324,0.013523,0.002678,0.000431,0.000823
78414000,0.0324,0.013523,0.002678,0.000431,0.000823
78415000,0.0324,0.013523,0.002678,0.000431,0.000823
78416000,0.0324,0.013523,0.002678,0.000431,0.000940
78417000,0.0324,0.013523,0.002678,0.000431,0.000823
78418000,0.0324,0.013523,0.002678,0.000431,0.000823
78419000,0.0324,0.013523,0.002678,0.000431,0.000705
78420000,0.0324,0.013523,0.002678,0.000431,0.000940
78421000,0.0324,0.013523,0.002678,0.000431,0.000940
78422000,0.0324,0.013523,0.002678,0.000431,0.000705
78423000,0.0324,0.013523,0.002678,0.000431,0.000940
78424000,0.0324,0.013523,0.002678,0.000431,0.000705
78425000,0.0324,0.013523,0.002678,0.000431,0.000940
78426000,0.0324,0.013523,0.002678,0.000431,0.000823
78427000,0.0324,0.013523,0.002678,0.000431,0.000823
78428000,0.0324,0.013523,0.002678,0.000431,0.000823
78429000,0.0324,0.013523,0.002678,0.000431,0.000823
78430000,0.0324,0.013523,0.002678,0.000431,0.000940
78431000,0.0324,0.013523,0.002678,0.000431,0.000823
78432000,0.0324,0.013523,0.002678,0.000431,0.000823
78433000,0.0324,0.013523,0.002678,0.000431,0.000823
78434000,0.0324,0.013523,0.002678,0.000431,0.000823
78435000,0.0324,0.013523,0.002678,0.000431,0.037021
78436000,0.0324,0.013523,0.002678,0.000431,0.484569
78437000,0.0324,0.013523,0.002678,0.000431,0.602567
78438000,0.0324,0.013523,0.002678,0.000431,0.132572
78439000,0.0324,0.013523,0.002678,0.000431,0.133512
78440000,0.0324,0.013523,0.002678,0.000431,0.495264
78441000,0.0324,0.013523,0.002678,0.000431,0.273958
78442000,0.0324,0.013523,0.002678,0.000431,0.231295
78443000,0.0324,0.013523,0.002678,0.000431,0.326728
78444000,0.0324,0.013523,0.002678,0.000431,0.170533
78445000,0.0324,0.013523,0.002678,0.000431,0.145500
78446000,0.0324,0.013523,0.002678,0.000431,0.143267
78447000,0.0324,0.013523,0.002678,0.000431,0.224831
78448000,0.0324,0.013523,0.002678,0.000431,0.389018
78449000,0.0324,0.013523,0.002678,0.000431,0.084620
78450000,0.0324,0.013523,0.002678,0.000431,0.073808
78451000,0.0324,0.013523,0.002678,0.000431,0.052183
78452000,0.0324,0.013523,0.002678,0.000431,0.051125
78453000,0.0324,0.013523,0.002678,0.000431,0.037727
78454000,0.0324,0.013523,0.002678,0.000431,0.030910
78455000,0.0324,0.013523,0.002678,0.000431,0.032790
78456000,0.0324,0.013523,0.002678,0.000431,0.025974
78457000,0.0324,0.013523,0.002678,0.000431,0.025386
78458000,0.0324,0.013523,0.002678,0.000431,0.021508
78459000,0.0324,0.013523,0.002678,0.000431,0.023036
78460000,0.0324,0.013523,0.002678,0.000431,0.020450
78461000,0.0324,0.013523,0.002678,0.000431,0.019745
78462000,0.0324,0.013523,0.002678,0.000431,0.019627
78463000,0.0324,0.013523,0.002678,0.000431,0.010578
78464000,0.0324,0.013523,0.002678,0.000431,0.011048
78465000,0.0324,0.013523,0.002678,0.000431,0.010578
78466000,0.0324,0.013523,0.002678,0.000431,0.010930
78467000,0.0324,0.013523,0.002678,0.000431,0.016454
78468000,0.0324,0.013523,0.002678,0.000431,0.007874
78469000,0.0324,0.013523,0.002678,0.000431,0.008462
78470000,0.0324,0.013523,0.002678,0.000431,0.008462
78471000,0.0324,0.013523,0.002678,0.000431,0.007992
78472000,0.0324,0.013523,0.002678,0.000431,0.009755
78473000,0.0324,0.013523,0.002678,0.000431,0.009050
78474000,0.0324,0.013523,0.002678,0.000431,0.008697
78475000,0.0324,0.013523,0.002678,0.000431,0.008109
78476000,0.0324,0.013523,0.002678,0.000431,0.006934
78477000,0.0324,0.013523,0.002678,0.000431,0.007522
78478000,0.0324,0.013523,0.002678,0.000431,0.007404
78479000,0.0324,0.013523,0.002678,0.000431,0.010695
78480000,0.0324,0.013523,0.002678,0.000431,0.002351
78481000,0.0324,0.013523,0.002678,0.000431,0.002586
78482000,0.0324,0.013523,0.002678,0.000431,0.004113
78483000,0.0324,0.013523,0.002678,0.000431,0.001763
78484000,0.0324,0.013523,0.002678,0.000431,0.001528
78485000,0.0324,0.013523,0.002678,0.000431,0.003643
78486000,0.0324,0.013523,0.002678,0.000431,0.000823
78487000,0.0324,0.013523,0.002678,0.000431,0.000823
78488000,0.0324,0.013523,0.002678,0.000431,0.000940
78489000,0.0324,0.013523,0.002678,0.000431,0.000940
78490000,0.0324,0.013523,0.002678,0.000431,0.244459
78491000,0.0324,0.013523,0.002678,0.000431,0.653927
78492000,0.0324,0.013523,0.002678,0.000431,0.317561
78493000,0.0324,0.013523,0.002678,0.000431,0.131632
78494000,0.0324,0.013523,0.002678,0.000431,0.150319
78495000,0.0324,0.013523,0.002678,0.000431,0.655455
78496000,0.0324,0.013523,0.002678,0.000431,0.235291
78497000,0.0324,0.013523,0.002678,0.000431,0.297581
78498000,0.0324,0.013523,0.002678,0.000431,0.206027
78499000,0.0324,0.013523,0.002678,0.000431,0.137508
78500000,0.0324,0.013523,0.002678,0.000431,0.156312
78501000,0.0324,0.013523,0.002678,0.000431,0.146323
78502000,0.0324,0.013523,0.002678,0.000431,0.445784
78503000,0.0324,0.013523,0.002678,0.000431,0.059587
78504000,0.0324,0.013523,0.002678,0.000431,0.041840
78505000,0.0324,0.013523,0.002678,0.000431,0.045248
78506000,0.0324,0.013523,0.002678,0.000431,0.033260
78507000,0.0324,0.013523,0.002678,0.000431,0.031380
78508000,0.0324,0.013523,0.002678,0.000431,0.025739
78509000,0.0324,0.013523,0.002678,0.000431,0.021508
78510000,0.0324,0.013523,0.002678,0.000431,0.022918
78511000,0.0324,0.013523,0.002678,0.000431,0.016689
78512000,0.0324,0.013523,0.002678,0.000431,0.016454
78513000,0.0324,0.013523,0.002678,0.000431,0.016924
78514000,0.0324,0.013523,0.002678,0.000431,0.016219
78515000,0.0324,0.013523,0.002678,0.000431,0.011635
78516000,0.0324,0.013523,0.002678,0.000431,0.012928
78517000,0.0324,0.013523,0.002678,0.000431,0.013751
78518000,0.0324,0.013523,0.002678,0.000431,0.010578
78519000,0.0324,0.013523,0.002678,0.000431,0.013868
78520000,0.0324,0.013523,0.002678,0.000431,0.008462
78521000,0.0324,0.013523,0.002678,0.000431,0.009755
78522000,0.0324,0.013523,0.002678,0.000431,0.007639
78523000,0.0324,0.013523,0.002678,0.000431,0.007522
78524000,0.0324,0.013523,0.002678,0.000431,0.007287
78525000,0.0324,0.013523,0.002678,0.000431,0.008227
78526000,0.0324,0.013523,0.002678,0.000431,0.007169
78527000,0.0324,0.013523,0.002678,0.000431,0.007757
78528000,0.0324,0.013523,0.002678,0.000431,0.007404
78529000,0.0324,0.013523,0.002678,0.000431,0.007522
78530000,0.0324,0.013523,0.002678,0.000431,0.007757
78531000,0.0324,0.013523,0.002678,0.000431,0.008227
78532000,0.0324,0.013523,0.002678,0.000431,0.007052
78533000,0.0324,0.013523,0.002678,0.000431,0.006464
78534000,0.0324,0.013523,0.002678,0.000431,0.006817
78535000,0.0324,0.013523,0.002678,0.000431,0.006464
78536000,0.0324,0.013523,0.002678,0.000431,0.007052
78537000,0.0324,0.013523,0.002678,0.000431,0.007287
78538000,0.0324,0.013523,0.002678,0.000431,0.006347
78539000,0.0324,0.013523,0.002678,0.000431,0.008345
78540000,0.0324,0.013523,0.002678,0.000431,0.005994
78541000,0.0324,0.013523,0.002678,0.000431,0.005759
78542000,0.0324,0.013523,0.002678,0.000431,0.006229
78543000,0.0324,0.013523,0.002678,0.000431,0.005406
78544000,0.0324,0.013523,0.002678,0.000431,0.006817
78545000,0.0324,0.013523,0.002678,0.000431,0.009167
78546000,0.0324,0.013523,0.002678,0.000431,0.005406
78547000,0.0324,0.013523,0.002678,0.000431,0.002586
78548000,0.0324,0.013523,0.002678,0.000431,0.002703
78549000,0.0324,0.013523,0.002678,0.000431,0.002468
78550000,0.0324,0.013523,0.002678,0.000431,0.002586
78551000,0.0324,0.013523,0.002678,0.000431,0.002586
78552000,0.0324,0.013523,0.002678,0.000431,0.002586
78553000,0.0324,0.013523,0.002678,0.000431,0.002468
78554000,0.0324,0.013523,0.002678,0.000431,0.002468
78555000,0.0324,0.013523,0.002678,0.000431,0.002821
78556000,0.0324,0.013523,0.002678,0.000431,0.002468
78557000,0.0324,0.013523,0.002678,0.000431,0.002586
78558000,0.0324,0.013523,0.002678,0.000431,0.002351
78559000,0.0324,0.013523,0.002678,0.000431,0.002703
78560000,0.0324,0.013523,0.002678,0.000431,0.002468
78561000,0.0324,0.013523,0.002678,0.000431,0.002586
78562000,0.0324,0.013523,0.002678,0.000431,0.002703
78563000,0.0324,0.013523,0.002678,0.000431,0.002351
78564000,0.0324,0.013523,0.002678,0.000431,0.002703
78565000,0.0324,0.013523,0.002678,0.000431,0.002351
78566000,0.0324,0.013523,0.002678,0.000431,0.002703
78567000,0.0324,0.013523,0.002678,0.000431,0.002703
78568000,0.0324,0.013523,0.002678,0.000431,0.002351
78569000,0.0324,0.013523,0.002678,0.000431,0.002586
78570000,0.0324,0.013523,0.002678,0.000431,0.002468
78571000,0.0324,0.013523,0.002678,0.000431,0.002821
78572000,0.0324,0.013523,0.002678,0.000431,0.002233
78573000,0.0324,0.013523,0.002678,0.000431,0.002703
78574000,0.0324,0.013523,0.002678,0.000431,0.002703
78575000,0.0324,0.013523,0.002678,0.000431,0.002468
78576000,0.0324,0.013523,0.002678,0.000431,0.002351
78577000,0.0324,0.013523,0.002678,0.000431,0.002703
78578000,0.0324,0.013523,0.002678,0.000431,0.002703
78579000,0.0324,0.013523,0.002678,0.000431,0.002351
78580000,0.0324,0.013523,0.002678,0.000431,0.002703
78581000,0.0324,0.013523,0.002678,0.000431,0.002351
78582000,0.0324,0.013523,0.002678,0.000431,0.002703
78583000,0.0324,0.013523,0.002678,0.000431,0.002586
78584000,0.0324,0.013523,0.002678,0.000431,0.002468
78585000,0.0324,0.013523,0.002678,0.000431,0.002703
78586000,0.0324,0.013523,0.002678,0.000431,0.002468
78587000,0.0324,0.013523,0.002678,0.000431,0.002468
78588000,0.0324,0.013523,0.002678,0.000431,0.002586
78589000,0.0324,0.013523,0.002678,0.000431,0.002586
78590000,0.0324,0.013523,0.002678,0.000431,0.002586
78591000,0.0324,0.013523,0.002678,0.000431,0.002351
78592000,0.0324,0.013523,0.002678,0.000431,0.002703
78593000,0.0324,0.013523,0.002678,0.000431,0.002468
78594000,0.0324,0.013523,0.002678,0.000431,0.004349
78595000,0.0324,0.013523,0.002678,0.000431,0.001528
78596000,0.0324,0.013523,0.002678,0.000431,0.001645
78597000,0.0324,0.013523,0.002678,0.000431,0.001763
78598000,0.0324,0.013523,0.002678,0.000431,0.001645
78599000,0.0324,0.013523,0.002678,0.000431,0.001763
78600000,0.0324,0.013523,0.002678,0.000431,0.001528
78601000,0.0324,0.013523,0.002678,0.000431,0.001763
78602000,0.0324,0.013523,0.002678,0.000431,0.001645
78603000,0.0324,0.013523,0.002678,0.000431,0.001763
78604000,0.0324,0.013523,0.002678,0.000431,0.001528
78605000,0.0324,0.013523,0.002678,0.000431,0.001763
78606000,0.0324,0.013523,0.002678,0.000431,0.001645
78607000,0.0324,0.013523,0.002678,0.000431,0.001645
78608000,0.0324,0.013523,0.002678,0.000431,0.001880
78609000,0.0324,0.013523,0.002678,0.000431,0.001410
78610000,0.0324,0.013523,0.002678,0.000431,0.001880
78611000,0.0324,0.013523,0.002678,0.000431,0.001528
78612000,0.0324,0.013523,0.002678,0.000431,0.001763
78613000,0.0324,0.013523,0.002678,0.000431,0.001763
78614000,0.0324,0.013523,0.002678,0.000431,0.001528
78615000,0.0324,0.013523,0.002678,0.000431,0.001880
78616000,0.0324,0.013523,0.002678,0.000431,0.003526
78617000,0.0324,0.013523,0.002678,0.000431,0.001058
78618000,0.0324,0.013523,0.002678,0.000431,0.000823
78619000,0.0324,0.013523,0.002678,0.000431,0.000823
78620000,0.0324,0.013523,0.002678,0.000431,0.000823
78621000,0.0324,0.013523,0.002678,0.000431,0.000823
78622000,0.0324,0.013523,0.002678,0.000431,0.000823
78623000,0.0324,0.013523,0.002678,0.000431,0.000823
78624000,0.0324,0.013523,0.002678,0.000431,0.000940
78625000,0.0324,0.013523,0.002678,0.000431,0.000705
78626000,0.0324,0.013523,0.002678,0.000431,0.000940
78627000,0.0324,0.013523,0.002678,0.000431,0.000823
78628000,0.0324,0.013523,0.002678,0.000431,0.000823
78629000,0.0324,0.013523,0.002678,0.000431,0.000823
78630000,0.0324,0.013523,0.002678,0.000431,0.000823
78631000,0.0324,0.013523,0.002678,0.000431,0.000940
78632000,0.0324,0.013523,0.002678,0.000431,0.000705
78633000,0.0324,0.013523,0.002678,0.000431,0.000940
78634000,0.0324,0.013523,0.002678,0.000431,0.033025
78635000,0.0324,0.013523,0.002678,0.000431,0.494911
78636000,0.0324,0.013523,0.002678,0.000431,0.601979
78637000,0.0324,0.013523,0.002678,0.000431,0.130691
78638000,0.0324,0.013523,0.002678,0.000431,0.134922
78639000,0.0324,0.013523,0.002678,0.000431,0.566603
78640000,0.0324,0.013523,0.002678,0.000431,0.242813
78641000,0.0324,0.013523,0.002678,0.000431,0.320264
78642000,0.0324,0.013523,0.002678,0.000431,0.279952
78643000,0.0324,0.013523,0.002678,0.000431,0.138096
78644000,0.0324,0.013523,0.002678,0.000431,0.147145
78645000,0.0324,0.013523,0.002678,0.000431,0.112592
78646000,0.0324,0.013523,0.002678,0.000431,0.399713
78647000,0.0324,0.013523,0.002678,0.000431,0.165832
78648000,0.0324,0.013523,0.002678,0.000431,0.025974
78649000,0.0324,0.013523,0.002678,0.000431,0.020802
78650000,0.0324,0.013523,0.002678,0.000431,0.021155
78651000,0.0324,0.013523,0.002678,0.000431,0.021390
78652000,0.0324,0.013523,0.002678,0.000431,0.017277
78653000,0.0324,0.013523,0.002678,0.000431,0.016571
78654000,0.0324,0.013523,0.002678,0.000431,0.013751
78655000,0.0324,0.013523,0.002678,0.000431,0.014103
78656000,0.0324,0.013523,0.002678,0.000431,0.013516
78657000,0.0324,0.013523,0.002678,0.000431,0.017159
78658000,0.0324,0.013523,0.002678,0.000431,0.013398
78659000,0.0324,0.013523,0.002678,0.000431,0.014456
78660000,0.0324,0.013523,0.002678,0.000431,0.011988
78661000,0.0324,0.013523,0.002678,0.000431,0.014456
78662000,0.0324,0.013523,0.002678,0.000431,0.011283
78663000,0.0324,0.013523,0.002678,0.000431,0.011400
78664000,0.0324,0.013523,0.002678,0.000431,0.010813
78665000,0.0324,0.013523,0.002678,0.000431,0.010813
78666000,0.0324,0.013523,0.002678,0.000431,0.010695
78667000,0.0324,0.013523,0.002678,0.000431,0.011400
78668000,0.0324,0.013523,0.002678,0.000431,0.011518
78669000,0.0324,0.013523,0.002678,0.000431,0.009520
78670000,0.0324,0.013523,0.002678,0.000431,0.008932
78671000,0.0324,0.013523,0.002678,0.000431,0.008109
78672000,0.0324,0.013523,0.002678,0.000431,0.008815
78673000,0.0324,0.013523,0.002678,0.000431,0.008109
78674000,0.0324,0.013523,0.002678,0.000431,0.009167
78675000,0.0324,0.013523,0.002678,0.000431,0.008580
78676000,0.0324,0.013523,0.002678,0.000431,0.009167
78677000,0.0324,0.013523,0.002678,0.000431,0.009637
78678000,0.0324,0.013523,0.002678,0.000431,0.007052
78679000,0.0324,0.013523,0.002678,0.000431,0.007757
78680000,0.0324,0.013523,0.002678,0.000431,0.007522
78681000,0.0324,0.013523,0.002678,0.000431,0.007522
78682000,0.0324,0.013523,0.002678,0.000431,0.007522
78683000,0.0324,0.013523,0.002678,0.000431,0.007287
78684000,0.0324,0.013523,0.002678,0.000431,0.007874
78685000,0.0324,0.013523,0.002678,0.000431,0.007169
78686000,0.0324,0.013523,0.002678,0.000431,0.007874
78687000,0.0324,0.013523,0.002678,0.000431,0.007639
78688000,0.0324,0.013523,0.002678,0.000431,0.010930
78689000,0.0324,0.013523,0.002678,0.000431,0.005876
78690000,0.0324,0.013523,0.002678,0.000431,0.003878
78691000,0.0324,0.013523,0.002678,0.000431,0.004349
78692000,0.0324,0.013523,0.002678,0.000431,0.003761
78693000,0.0324,0.013523,0.002678,0.000431,0.004113
78694000,0.0324,0.013523,0.002678,0.000431,0.003996
78695000,0.0324,0.013523,0.002678,0.000431,0.003643
78696000,0.0324,0.013523,0.002678,0.000431,0.003996
78697000,0.0324,0.013523,0.002678,0.000431,0.003996
78698000,0.0324,0.013523,0.002678,0.000431,0.004231
78699000,0.0324,0.013523,0.002678,0.000431,0.003761
78700000,0.0324,0.013523,0.002678,0.000431,0.003878
78701000,0.0324,0.013523,0.002678,0.000431,0.003996
78702000,0.0324,0.013523,0.002678,0.000431,0.003408
78703000,0.0324,0.013523,0.002678,0.000431,0.003173
78704000,0.0324,0.013523,0.002678,0.000431,0.003526
78705000,0.0324,0.013523,0.002678,0.000431,0.003173
78706000,0.0324,0.013523,0.002678,0.000431,0.003408
78707000,0.0324,0.013523,0.002678,0.000431,0.003526
78708000,0.0324,0.013523,0.002678,0.000431,0.003056
78709000,0.0324,0.013523,0.002678,0.000431,0.003526
78710000,0.0324,0.013523,0.002678,0.000431,0.003173
78711000,0.0324,0.013523,0.002678,0.000431,0.003526
78712000,0.0324,0.013523,0.002678,0.000431,0.003173
78713000,0.0324,0.013523,0.002678,0.000431,0.003526
78714000,0.0324,0.013523,0.002678,0.000431,0.003408
78715000,0.0324,0.013523,0.002678,0.000431,0.003056
78716000,0.0324,0.013523,0.002678,0.000431,0.003643
78717000,0.0324,0.013523,0.002678,0.000431,0.003173
78718000,0.0324,0.013523,0.002678,0.000431,0.003526
78719000,0.0324,0.013523,0.002678,0.000431,0.003173
78720000,0.0324,0.013523,0.002678,0.000431,0.003291
78721000,0.0324,0.013523,0.002678,0.000431,0.003643
78722000,0.0324,0.013523,0.002678,0.000431,0.003173
78723000,0.0324,0.013523,0.002678,0.000431,0.003408
78724000,0.0324,0.013523,0.002678,0.000431,0.003408
78725000,0.0324,0.013523,0.002678,0.000431,0.003056
78726000,0.0324,0.013523,0.002678,0.000431,0.004231
78727000,0.0324,0.013523,0.002678,0.000431,0.003878
78728000,0.0324,0.013523,0.002678,0.000431,0.004936
78729000,0.0324,0.013523,0.002678,0.000431,0.001763
78730000,0.0324,0.013523,0.002678,0.000431,0.001645
78731000,0.0324,0.013523,0.002678,0.000431,0.001645
78732000,0.0324,0.013523,0.002678,0.000431,0.001763
78733000,0.0324,0.013523,0.002678,0.000431,0.001645
78734000,0.0324,0.013523,0.002678,0.000431,0.001763
78735000,0.0324,0.013523,0.002678,0.000431,0.001528
78736000,0.0324,0.013523,0.002678,0.000431,0.001763
78737000,0.0324,0.013523,0.002678,0.000431,0.001645
78738000,0.0324,0.013523,0.002678,0.000431,0.001645
78739000,0.0324,0.013523,0.002678,0.000431,0.001763
78740000,0.0324,0.013523,0.002678,0.000431,0.001645
78741000,0.0324,0.013523,0.002678,0.000431,0.001763
78742000,0.0324,0.013523,0.002678,0.000431,0.001410
78743000,0.0324,0.013523,0.002678,0.000431,0.001880
78744000,0.0324,0.013523,0.002678,0.000431,0.001645
78745000,0.0324,0.013523,0.002678,0.000431,0.001645
78746000,0.0324,0.013523,0.002678,0.000431,0.001763
78747000,0.0324,0.013523,0.002678,0.000431,0.001528
78748000,0.0324,0.013523,0.002678,0.000431,0.001763
78749000,0.0324,0.013523,0.002678,0.000431,0.001645
78750000,0.0324,0.013523,0.002678,0.000431,0.001763
78751000,0.0324,0.013523,0.002678,0.000431,0.001645
78752000,0.0324,0.013523,0.002678,0.000431,0.001645
78753000,0.0324,0.013523,0.002678,0.000431,0.001645
78754000,0.0324,0.013523,0.002678,0.000431,0.001763
78755000,0.0324,0.013523,0.002678,0.000431,0.001645
78756000,0.0324,0.013523,0.002678,0.000431,0.001645
78757000,0.0324,0.013523,0.002678,0.000431,0.001763
78758000,0.0324,0.013523,0.002678,0.000431,0.001528
78759000,0.0324,0.013523,0.002678,0.000431,0.001763
78760000,0.0324,0.013523,0.002678,0.000431,0.001763
78761000,0.0324,0.013523,0.002678,0.000431,0.001528
78762000,0.0324,0.013523,0.002678,0.000431,0.001763
78763000,0.0324,0.013523,0.002678,0.000431,0.001645
78764000,0.0324,0.013523,0.002678,0.000431,0.001645
78765000,0.0324,0.013523,0.002678,0.000431,0.001528
78766000,0.0324,0.013523,0.002678,0.000431,0.001880
78767000,0.0324,0.013523,0.002678,0.000431,0.001763
78768000,0.0324,0.013523,0.002678,0.000431,0.001528
78769000,0.0324,0.013523,0.002678,0.000431,0.001763
78770000,0.0324,0.013523,0.002678,0.000431,0.001528
78771000,0.0324,0.013523,0.002678,0.000431,0.001763
78772000,0.0324,0.013523,0.002678,0.000431,0.001645
78773000,0.0324,0.013523,0.002678,0.000431,0.001645
78774000,0.0324,0.013523,0.002678,0.000431,0.001763
78775000,0.0324,0.013523,0.002678,0.000431,0.001645
78776000,0.0324,0.013523,0.002678,0.000431,0.001763
78777000,0.0324,0.013523,0.002678,0.000431,0.001528
78778000,0.0324,0.013523,0.002678,0.000431,0.001645
78779000,0.0324,0.013523,0.002678,0.000431,0.001763
78780000,0.0324,0.013523,0.002678,0.000431,0.001763
78781000,0.0324,0.013523,0.002678,0.000431,0.001528
78782000,0.0324,0.013523,0.002678,0.000431,0.001763
78783000,0.0324,0.013523,0.002678,0.000431,0.001645
78784000,0.0324,0.013523,0.002678,0.000431,0.001645
78785000,0.0324,0.013523,0.002678,0.000431,0.001645
78786000,0.0324,0.013523,0.002678,0.000431,0.001763
78787000,0.0324,0.013523,0.002678,0.000431,0.001763
78788000,0.0324,0.013523,0.002678,0.000431,0.001528
78789000,0.0324,0.013523,0.002678,0.000431,0.001763
78790000,0.0324,0.013523,0.002678,0.000431,0.001528
78791000,0.0324,0.013523,0.002678,0.000431,0.001763
78792000,0.0324,0.013523,0.002678,0.000431,0.001763
78793000,0.0324,0.013523,0.002678,0.000431,0.001528
78794000,0.0324,0.013523,0.002678,0.000431,0.001763
78795000,0.0324,0.013523,0.002678,0.000431,0.001528
78796000,0.0324,0.013523,0.002678,0.000431,0.001880
78797000,0.0324,0.013523,0.002678,0.000431,0.001528
78798000,0.0324,0.013523,0.002678,0.000431,0.001763
78799000,0.0324,0.013523,0.002678,0.000431,0.001763
78800000,0.0324,0.013523,0.002678,0.000431,0.001528
78801000,0.0324,0.013523,0.002678,0.000431,0.001645
78802000,0.0324,0.013523,0.002678,0.000431,0.001763
78803000,0.0324,0.013523,0.002678,0.000431,0.001763
78804000,0.0324,0.013523,0.002678,0.000431,0.001763
78805000,0.0324,0.013523,0.002678,0.000431,0.001528
78806000,0.0324,0.013523,0.002678,0.000431,0.003643
78807000,0.0324,0.013523,0.002678,0.000431,0.000705
78808000,0.0324,0.013523,0.002678,0.000431,0.000940
78809000,0.0324,0.013523,0.002678,0.000431,0.000823
78810000,0.0324,0.013523,0.002678,0.000431,0.000823
78811000,0.0324,0.013523,0.002678,0.000431,0.000823
78812000,0.0324,0.013523,0.002678,0.000431,0.000823
78813000,0.0324,0.013523,0.002678,0.000431,0.000823
78814000,0.0324,0.013523,0.002678,0.000431,0.000823
78815000,0.0324,0.013523,0.002678,0.000431,0.000940
78816000,0.0324,0.013523,0.002678,0.000431,0.000705
78817000,0.0324,0.013523,0.002678,0.000431,0.000940
78818000,0.0324,0.013523,0.002678,0.000431,0.000705
78819000,0.0324,0.013523,0.002678,0.000431,0.000940
78820000,0.0324,0.013523,0.002678,0.000431,0.000940
78821000,0.0324,0.013523,0.002678,0.000431,0.000705
78822000,0.0324,0.013523,0.002678,0.000431,0.000940
78823000,0.0324,0.013523,0.002678,0.000431,0.000705
78824000,0.0324,0.013523,0.002678,0.000431,0.000940
78825000,0.0324,0.013523,0.002678,0.000431,0.000823
78826000,0.0324,0.013523,0.002678,0.000431,0.000823
78827000,0.0324,0.013523,0.002678,0.000431,0.000823
78828000,0.0324,0.013523,0.002678,0.000431,0.000823
78829000,0.0324,0.013523,0.002678,0.000431,0.000940
78830000,0.0324,0.013523,0.002678,0.000431,0.000705
78831000,0.0324,0.013523,0.002678,0.000431,0.000940
78832000,0.0324,0.013523,0.002678,0.000431,0.000823
78833000,0.0324,0.013523,0.002678,0.000431,0.000823
78834000,0.0324,0.013523,0.002678,0.000431,0.000823
78835000,0.0324,0.013523,0.002678,0.000431,0.000823
78836000,0.0324,0.013523,0.002678,0.000431,0.000823
78837000,0.0324,0.013523,0.002678,0.000431,0.000823
78838000,0.0324,0.013523,0.002678,0.000431,0.000823
78839000,0.0324,0.013523,0.002678,0.000431,0.000823
78840000,0.0324,0.013523,0.002678,0.000431,0.000940
78841000,0.0324,0.013523,0.002678,0.000431,0.000823
78842000,0.0324,0.013523,0.002678,0.000431,0.000823
78843000,0.0324,0.013523,0.002678,0.000431,0.000705
78844000,0.0324,0.013523,0.002678,0.000431,0.000940
78845000,0.0324,0.013523,0.002678,0.000431,0.000940
78846000,0.0324,0.013523,0.002678,0.000431,0.000705
78847000,0.0324,0.013523,0.002678,0.000431,0.000940
78848000,0.0324,0.013523,0.002678,0.000431,0.000705
78849000,0.0324,0.013523,0.002678,0.000431,0.000940
78850000,0.0324,0.013523,0.002678,0.000431,0.000823
78851000,0.0324,0.013523,0.002678,0.000431,0.000823
78852000,0.0324,0.013523,0.002678,0.000431,0.000940
78853000,0.0324,0.013523,0.002678,0.000431,0.000705
78854000,0.0324,0.013523,0.002678,0.000431,0.000940
78855000,0.0324,0.013523,0.002678,0.000431,0.000823
78856000,0.0324,0.013523,0.002678,0.000431,0.000823
78857000,0.0324,0.013523,0.002678,0.000431,0.000823
78858000,0.0324,0.013523,0.002678,0.000431,0.000823
78859000,0.0324,0.013523,0.002678,0.000431,0.000823
78860000,0.0324,0.013523,0.002678,0.000431,0.000823
78861000,0.0324,0.013523,0.002678,0.000431,0.000940
78862000,0.0324,0.013523,0.002678,0.000431,0.000705
78863000,0.0324,0.013523,0.002678,0.000431,0.000940
78864000,0.0324,0.013523,0.002678,0.000431,0.000823
78865000,0.0324,0.013523,0.002678,0.000431,0.000823
78866000,0.0324,0.013523,0.002678,0.000431,0.009167
78867000,0.0324,0.013523,0.002678,0.000431,0.436735
78868000,0.0324,0.013523,0.002678,0.000431,0.608678
78869000,0.0324,0.013523,0.002678,0.000431,0.133630
78870000,0.0324,0.013523,0.002678,0.000431,0.131984
78871000,0.0324,0.013523,0.002678,0.000431,0.183814
78872000,0.0324,0.013523,0.002678,0.000431,0.555321
78873000,0.0324,0.013523,0.002678,0.000431,0.252333
78874000,0.0324,0.013523,0.002678,0.000431,0.265026
78875000,0.0324,0.013523,0.002678,0.000431,0.244341
78876000,0.0324,0.013523,0.002678,0.000431,0.144795
78877000,0.0324,0.013523,0.002678,0.000431,0.184284
78878000,0.0324,0.013523,0.002678,0.000431,0.084033
78879000,0.0324,0.013523,0.002678,0.000431,0.485626
78880000,0.0324,0.013523,0.002678,0.000431,0.133277
78881000,0.0324,0.013523,0.002678,0.000431,0.089439
78882000,0.0324,0.013523,0.002678,0.000431,0.068519
78883000,0.0324,0.013523,0.002678,0.000431,0.056766
78884000,0.0324,0.013523,0.002678,0.000431,0.054533
78885000,0.0324,0.013523,0.002678,0.000431,0.036081
78886000,0.0324,0.013523,0.002678,0.000431,0.034083
78887000,0.0324,0.013523,0.002678,0.000431,0.030675
78888000,0.0324,0.013523,0.002678,0.000431,0.036669
78889000,0.0324,0.013523,0.002678,0.000431,0.026796
78890000,0.0324,0.013523,0.002678,0.000431,0.027384
78891000,0.0324,0.013523,0.002678,0.000431,0.024563
78892000,0.0324,0.013523,0.002678,0.000431,0.023623
78893000,0.0324,0.013523,0.002678,0.000431,0.024211
78894000,0.0324,0.013523,0.002678,0.000431,0.023388
78895000,0.0324,0.013523,0.002678,0.000431,0.019157
78896000,0.0324,0.013523,0.002678,0.000431,0.020215
78897000,0.0324,0.013523,0.002678,0.000431,0.019627
78898000,0.0324,0.013523,0.002678,0.000431,0.018805
78899000,0.0324,0.013523,0.002678,0.000431,0.019275
78900000,0.0324,0.013523,0.002678,0.000431,0.018922
78901000,0.0324,0.013523,0.002678,0.000431,0.016924
78902000,0.0324,0.013523,0.002678,0.000431,0.019275
78903000,0.0324,0.013523,0.002678,0.000431,0.015279
78904000,0.0324,0.013523,0.002678,0.000431,0.014338
78905000,0.0324,0.013523,0.002678,0.000431,0.014809
78906000,0.0324,0.013523,0.002678,0.000431,0.017512
78907000,0.0324,0.013523,0.002678,0.000431,0.012576
78908000,0.0324,0.013523,0.002678,0.000431,0.012105
78909000,0.0324,0.013523,0.002678,0.000431,0.013516
78910000,0.0324,0.013523,0.002678,0.000431,0.010813
78911000,0.0324,0.013523,0.002678,0.000431,0.011518
78912000,0.0324,0.013523,0.002678,0.000431,0.010930
78913000,0.0324,0.013523,0.002678,0.000431,0.011400
78914000,0.0324,0.013523,0.002678,0.000431,0.011988
78915000,0.0324,0.013523,0.002678,0.000431,0.013986
78916000,0.0324,0.013523,0.002678,0.000431,0.010578
78917000,0.0324,0.013523,0.002678,0.000431,0.011165
78918000,0.0324,0.013523,0.002678,0.000431,0.009755
78919000,0.0324,0.013523,0.002678,0.000431,0.009285
78920000,0.0324,0.013523,0.002678,0.000431,0.007874
78921000,0.0324,0.013523,0.002678,0.000431,0.010813
78922000,0.0324,0.013523,0.002678,0.000431,0.007757
78923000,0.0324,0.013523,0.002678,0.000431,0.007874
78924000,0.0324,0.013523,0.002678,0.000431,0.007992
78925000,0.0324,0.013523,0.002678,0.000431,0.007639
78926000,0.0324,0.013523,0.002678,0.000431,0.007757
78927000,0.0324,0.013523,0.002678,0.000431,0.008227
78928000,0.0324,0.013523,0.002678,0.000431,0.007639
78929000,0.0324,0.013523,0.002678,0.000431,0.008227
78930000,0.0324,0.013523,0.002678,0.000431,0.007169
78931000,0.0324,0.013523,0.002678,0.000431,0.008345
78932000,0.0324,0.013523,0.002678,0.000431,0.007757
78933000,0.0324,0.013523,0.002678,0.000431,0.007287
78934000,0.0324,0.013523,0.002678,0.000431,0.009167
78935000,0.0324,0.013523,0.002678,0.000431,0.006699
78936000,0.0324,0.013523,0.002678,0.000431,0.008345
78937000,0.0324,0.013523,0.002678,0.000431,0.008815
78938000,0.0324,0.013523,0.002678,0.000431,0.009167
78939000,0.0324,0.013523,0.002678,0.000431,0.005759
78940000,0.0324,0.013523,0.002678,0.000431,0.005171
78941000,0.0324,0.013523,0.002678,0.000431,0.005524
78942000,0.0324,0.013523,0.002678,0.000431,0.005759
78943000,0.0324,0.013523,0.002678,0.000431,0.005406
78944000,0.0324,0.013523,0.002678,0.000431,0.005054
78945000,0.0324,0.013523,0.002678,0.000431,0.005641
78946000,0.0324,0.013523,0.002678,0.000431,0.005759
78947000,0.0324,0.013523,0.002678,0.000431,0.005289
78948000,0.0324,0.013523,0.002678,0.000431,0.005289
78949000,0.0324,0.013523,0.002678,0.000431,0.005641
78950000,0.0324,0.013523,0.002678,0.000431,0.004584
78951000,0.0324,0.013523,0.002678,0.000431,0.006229
78952000,0.0324,0.013523,0.002678,0.000431,0.005876
78953000,0.0324,0.013523,0.002678,0.000431,0.004466
78954000,0.0324,0.013523,0.002678,0.000431,0.006464
78955000,0.0324,0.013523,0.002678,0.000431,0.004349
78956000,0.0324,0.013523,0.002678,0.000431,0.005994
78957000,0.0324,0.013523,0.002678,0.000431,0.005876
78958000,0.0324,0.013523,0.002678,0.000431,0.008345
78959000,0.0324,0.013523,0.002678,0.000431,0.002586
78960000,0.0324,0.013523,0.002678,0.000431,0.002586
78961000,0.0324,0.013523,0.002678,0.000431,0.001880
78962000,0.0324,0.013523,0.002678,0.000431,0.002821
78963000,0.0324,0.013523,0.002678,0.000431,0.001998
78964000,0.0324,0.013523,0.002678,0.000431,0.001645
78965000,0.0324,0.013523,0.002678,0.000431,0.001645
78966000,0.0324,0.013523,0.002678,0.000431,0.001645
78967000,0.0324,0.013523,0.002678,0.000431,0.001880
78968000,0.0324,0.013523,0.002678,0.000431,0.001410
78969000,0.0324,0.013523,0.002678,0.000431,0.001880
78970000,0.0324,0.013523,0.002678,0.000431,0.001528
78971000,0.0324,0.013523,0.002678,0.000431,0.001763
78972000,0.0324,0.013523,0.002678,0.000431,0.001645
78973000,0.0324,0.013523,0.002678,0.000431,0.001645
78974000,0.0324,0.013523,0.002678,0.000431,0.001880
78975000,0.0324,0.013523,0.002678,0.000431,0.001410
78976000,0.0324,0.013523,0.002678,0.000431,0.001880
78977000,0.0324,0.013523,0.002678,0.000431,0.001645
78978000,0.0324,0.013523,0.002678,0.000431,0.001528
78979000,0.0324,0.013523,0.002678,0.000431,0.001763
78980000,0.0324,0.013523,0.002678,0.000431,0.001645
78981000,0.0324,0.013523,0.002678,0.000431,0.001645
78982000,0.0324,0.013523,0.002678,0.000431,0.001645
78983000,0.0324,0.013523,0.002678,0.000431,0.001763
78984000,0.0324,0.013523,0.002678,0.000431,0.001528
78985000,0.0324,0.013523,0.002678,0.000431,0.001763
78986000,0.0324,0.013523,0.002678,0.000431,0.001763
78987000,0.0324,0.013523,0.002678,0.000431,0.001645
78988000,0.0324,0.013523,0.002678,0.000431,0.001528
78989000,0.0324,0.013523,0.002678,0.000431,0.001763
78990000,0.0324,0.013523,0.002678,0.000431,0.001763
78991000,0.0324,0.013523,0.002678,0.000431,0.002703
78992000,0.0324,0.013523,0.002678,0.000431,0.001763
78993000,0.0324,0.013523,0.002678,0.000431,0.000705
78994000,0.0324,0.013523,0.002678,0.000431,0.000940
78995000,0.0324,0.013523,0.002678,0.000431,0.000823
78996000,0.0324,0.013523,0.002678,0.000431,0.000823
78997000,0.0324,0.013523,0.002678,0.000431,0.000940
78998000,0.0324,0.013523,0.002678,0.000431,0.000705
78999000,0.0324,0.013523,0.002678,0.000431,0.000940
