Cycle,Area(mm^2),PeakDynamic(W),SubthresholdLeakage(W),GateLeakage(W),RunTimeDynamic(W)
130000000,0.0324,0.013523,0.002678,0.000431,0.000940
130001000,0.0324,0.013523,0.002678,0.000431,0.000823
130002000,0.0324,0.013523,0.002678,0.000431,0.000940
130003000,0.0324,0.013523,0.002678,0.000431,0.000823
130004000,0.0324,0.013523,0.002678,0.000431,0.000823
130005000,0.0324,0.013523,0.002678,0.000431,0.000940
130006000,0.0324,0.013523,0.002678,0.000431,0.000940
130007000,0.0324,0.013523,0.002678,0.000431,0.000823
130008000,0.0324,0.013523,0.002678,0.000431,0.000823
130009000,0.0324,0.013523,0.002678,0.000431,0.000940
130010000,0.0324,0.013523,0.002678,0.000431,0.000940
130011000,0.0324,0.013523,0.002678,0.000431,0.000823
130012000,0.0324,0.013523,0.002678,0.000431,0.000823
130013000,0.0324,0.013523,0.002678,0.000431,0.000940
130014000,0.0324,0.013523,0.002678,0.000431,0.000940
130015000,0.0324,0.013523,0.002678,0.000431,0.000823
130016000,0.0324,0.013523,0.002678,0.000431,0.000823
130017000,0.0324,0.013523,0.002678,0.000431,0.000940
130018000,0.0324,0.013523,0.002678,0.000431,0.000823
130019000,0.0324,0.013523,0.002678,0.000431,0.074513
130020000,0.0324,0.013523,0.002678,0.000431,0.478340
130021000,0.0324,0.013523,0.002678,0.000431,0.567896
130022000,0.0324,0.013523,0.002678,0.000431,0.132102
130023000,0.0324,0.013523,0.002678,0.000431,0.132572
130024000,0.0324,0.013523,0.002678,0.000431,0.577298
130025000,0.0324,0.013523,0.002678,0.000431,0.224361
130026000,0.0324,0.013523,0.002678,0.000431,0.287239
130027000,0.0324,0.013523,0.002678,0.000431,0.297111
130028000,0.0324,0.013523,0.002678,0.000431,0.144795
130029000,0.0324,0.013523,0.002678,0.000431,0.148203
130030000,0.0324,0.013523,0.002678,0.000431,0.116588
130031000,0.0324,0.013523,0.002678,0.000431,0.306631
130032000,0.0324,0.013523,0.002678,0.000431,0.299932
130033000,0.0324,0.013523,0.002678,0.000431,0.048422
130034000,0.0324,0.013523,0.002678,0.000431,0.040665
130035000,0.0324,0.013523,0.002678,0.000431,0.038549
130036000,0.0324,0.013523,0.002678,0.000431,0.033025
130037000,0.0324,0.013523,0.002678,0.000431,0.024446
130038000,0.0324,0.013523,0.002678,0.000431,0.025151
130039000,0.0324,0.013523,0.002678,0.000431,0.020215
130040000,0.0324,0.013523,0.002678,0.000431,0.021743
130041000,0.0324,0.013523,0.002678,0.000431,0.017512
130042000,0.0324,0.013523,0.002678,0.000431,0.021038
130043000,0.0324,0.013523,0.002678,0.000431,0.015866
130044000,0.0324,0.013523,0.002678,0.000431,0.013281
130045000,0.0324,0.013523,0.002678,0.000431,0.013163
130046000,0.0324,0.013523,0.002678,0.000431,0.011165
130047000,0.0324,0.013523,0.002678,0.000431,0.008580
130048000,0.0324,0.013523,0.002678,0.000431,0.006699
130049000,0.0324,0.013523,0.002678,0.000431,0.007052
130050000,0.0324,0.013523,0.002678,0.000431,0.006817
130051000,0.0324,0.013523,0.002678,0.000431,0.007639
130052000,0.0324,0.013523,0.002678,0.000431,0.007874
130053000,0.0324,0.013523,0.002678,0.000431,0.004349
130054000,0.0324,0.013523,0.002678,0.000431,0.003878
130055000,0.0324,0.013523,0.002678,0.000431,0.004113
130056000,0.0324,0.013523,0.002678,0.000431,0.003996
130057000,0.0324,0.013523,0.002678,0.000431,0.003996
130058000,0.0324,0.013523,0.002678,0.000431,0.004584
130059000,0.0324,0.013523,0.002678,0.000431,0.003643
130060000,0.0324,0.013523,0.002678,0.000431,0.004466
130061000,0.0324,0.013523,0.002678,0.000431,0.003761
130062000,0.0324,0.013523,0.002678,0.000431,0.004231
130063000,0.0324,0.013523,0.002678,0.000431,0.004231
130064000,0.0324,0.013523,0.002678,0.000431,0.003761
130065000,0.0324,0.013523,0.002678,0.000431,0.004584
130066000,0.0324,0.013523,0.002678,0.000431,0.003643
130067000,0.0324,0.013523,0.002678,0.000431,0.004349
130068000,0.0324,0.013523,0.002678,0.000431,0.003878
130069000,0.0324,0.013523,0.002678,0.000431,0.004231
130070000,0.0324,0.013523,0.002678,0.000431,0.004113
130071000,0.0324,0.013523,0.002678,0.000431,0.004113
130072000,0.0324,0.013523,0.002678,0.000431,0.006229
130073000,0.0324,0.013523,0.002678,0.000431,0.005524
130074000,0.0324,0.013523,0.002678,0.000431,0.002586
130075000,0.0324,0.013523,0.002678,0.000431,0.002233
130076000,0.0324,0.013523,0.002678,0.000431,0.002703
130077000,0.0324,0.013523,0.002678,0.000431,0.001998
130078000,0.0324,0.013523,0.002678,0.000431,0.002703
130079000,0.0324,0.013523,0.002678,0.000431,0.002233
130080000,0.0324,0.013523,0.002678,0.000431,0.002468
130081000,0.0324,0.013523,0.002678,0.000431,0.002586
130082000,0.0324,0.013523,0.002678,0.000431,0.002116
130083000,0.0324,0.013523,0.002678,0.000431,0.002821
130084000,0.0324,0.013523,0.002678,0.000431,0.002116
130085000,0.0324,0.013523,0.002678,0.000431,0.002586
130086000,0.0324,0.013523,0.002678,0.000431,0.002586
130087000,0.0324,0.013523,0.002678,0.000431,0.002116
130088000,0.0324,0.013523,0.002678,0.000431,0.002586
130089000,0.0324,0.013523,0.002678,0.000431,0.002351
130090000,0.0324,0.013523,0.002678,0.000431,0.002351
130091000,0.0324,0.013523,0.002678,0.000431,0.002468
130092000,0.0324,0.013523,0.002678,0.000431,0.003056
130093000,0.0324,0.013523,0.002678,0.000431,0.000823
130094000,0.0324,0.013523,0.002678,0.000431,0.000823
130095000,0.0324,0.013523,0.002678,0.000431,0.000823
130096000,0.0324,0.013523,0.002678,0.000431,0.000940
130097000,0.0324,0.013523,0.002678,0.000431,0.000705
130098000,0.0324,0.013523,0.002678,0.000431,0.000940
130099000,0.0324,0.013523,0.002678,0.000431,0.000823
130100000,0.0324,0.013523,0.002678,0.000431,0.000705
130101000,0.0324,0.013523,0.002678,0.000431,0.000940
130102000,0.0324,0.013523,0.002678,0.000431,0.000823
130103000,0.0324,0.013523,0.002678,0.000431,0.000823
130104000,0.0324,0.013523,0.002678,0.000431,0.000823
130105000,0.0324,0.013523,0.002678,0.000431,0.000823
130106000,0.0324,0.013523,0.002678,0.000431,0.000823
130107000,0.0324,0.013523,0.002678,0.000431,0.000940
130108000,0.0324,0.013523,0.002678,0.000431,0.000823
130109000,0.0324,0.013523,0.002678,0.000431,0.000823
130110000,0.0324,0.013523,0.002678,0.000431,0.000705
130111000,0.0324,0.013523,0.002678,0.000431,0.000940
130112000,0.0324,0.013523,0.002678,0.000431,0.000940
130113000,0.0324,0.013523,0.002678,0.000431,0.000705
130114000,0.0324,0.013523,0.002678,0.000431,0.000940
130115000,0.0324,0.013523,0.002678,0.000431,0.000705
130116000,0.0324,0.013523,0.002678,0.000431,0.000940
130117000,0.0324,0.013523,0.002678,0.000431,0.000940
130118000,0.0324,0.013523,0.002678,0.000431,0.000705
130119000,0.0324,0.013523,0.002678,0.000431,0.000940
130120000,0.0324,0.013523,0.002678,0.000431,0.000705
130121000,0.0324,0.013523,0.002678,0.000431,0.000940
130122000,0.0324,0.013523,0.002678,0.000431,0.000823
130123000,0.0324,0.013523,0.002678,0.000431,0.000823
130124000,0.0324,0.013523,0.002678,0.000431,0.000823
130125000,0.0324,0.013523,0.002678,0.000431,0.000823
130126000,0.0324,0.013523,0.002678,0.000431,0.000940
130127000,0.0324,0.013523,0.002678,0.000431,0.000705
130128000,0.0324,0.013523,0.002678,0.000431,0.002586
130129000,0.0324,0.013523,0.002678,0.000431,0.419693
130130000,0.0324,0.013523,0.002678,0.000431,0.662389
130131000,0.0324,0.013523,0.002678,0.000431,0.134100
130132000,0.0324,0.013523,0.002678,0.000431,0.134452
130133000,0.0324,0.013523,0.002678,0.000431,0.232353
130134000,0.0324,0.013523,0.002678,0.000431,0.532638
130135000,0.0324,0.013523,0.002678,0.000431,0.288179
130136000,0.0324,0.013523,0.002678,0.000431,0.327786
130137000,0.0324,0.013523,0.002678,0.000431,0.186400
130138000,0.0324,0.013523,0.002678,0.000431,0.145147
130139000,0.0324,0.013523,0.002678,0.000431,0.106481
130140000,0.0324,0.013523,0.002678,0.000431,0.308982
130141000,0.0324,0.013523,0.002678,0.000431,0.261500
130142000,0.0324,0.013523,0.002678,0.000431,0.016689
130143000,0.0324,0.013523,0.002678,0.000431,0.014809
130144000,0.0324,0.013523,0.002678,0.000431,0.013986
130145000,0.0324,0.013523,0.002678,0.000431,0.013986
130146000,0.0324,0.013523,0.002678,0.000431,0.015631
130147000,0.0324,0.013523,0.002678,0.000431,0.011753
130148000,0.0324,0.013523,0.002678,0.000431,0.013986
130149000,0.0324,0.013523,0.002678,0.000431,0.011635
130150000,0.0324,0.013523,0.002678,0.000431,0.011400
130151000,0.0324,0.013523,0.002678,0.000431,0.011283
130152000,0.0324,0.013523,0.002678,0.000431,0.012928
130153000,0.0324,0.013523,0.002678,0.000431,0.009990
130154000,0.0324,0.013523,0.002678,0.000431,0.009637
130155000,0.0324,0.013523,0.002678,0.000431,0.010460
130156000,0.0324,0.013523,0.002678,0.000431,0.009520
130157000,0.0324,0.013523,0.002678,0.000431,0.011048
130158000,0.0324,0.013523,0.002678,0.000431,0.009520
130159000,0.0324,0.013523,0.002678,0.000431,0.008932
130160000,0.0324,0.013523,0.002678,0.000431,0.009050
130161000,0.0324,0.013523,0.002678,0.000431,0.009402
130162000,0.0324,0.013523,0.002678,0.000431,0.009167
130163000,0.0324,0.013523,0.002678,0.000431,0.009520
130164000,0.0324,0.013523,0.002678,0.000431,0.008462
130165000,0.0324,0.013523,0.002678,0.000431,0.010695
130166000,0.0324,0.013523,0.002678,0.000431,0.008227
130167000,0.0324,0.013523,0.002678,0.000431,0.008345
130168000,0.0324,0.013523,0.002678,0.000431,0.007522
130169000,0.0324,0.013523,0.002678,0.000431,0.007404
130170000,0.0324,0.013523,0.002678,0.000431,0.007404
130171000,0.0324,0.013523,0.002678,0.000431,0.007992
130172000,0.0324,0.013523,0.002678,0.000431,0.009402
130173000,0.0324,0.013523,0.002678,0.000431,0.006582
130174000,0.0324,0.013523,0.002678,0.000431,0.007169
130175000,0.0324,0.013523,0.002678,0.000431,0.006111
130176000,0.0324,0.013523,0.002678,0.000431,0.007287
130177000,0.0324,0.013523,0.002678,0.000431,0.006347
130178000,0.0324,0.013523,0.002678,0.000431,0.006817
130179000,0.0324,0.013523,0.002678,0.000431,0.007169
130180000,0.0324,0.013523,0.002678,0.000431,0.006111
130181000,0.0324,0.013523,0.002678,0.000431,0.007404
130182000,0.0324,0.013523,0.002678,0.000431,0.007404
130183000,0.0324,0.013523,0.002678,0.000431,0.006111
130184000,0.0324,0.013523,0.002678,0.000431,0.007169
130185000,0.0324,0.013523,0.002678,0.000431,0.005054
130186000,0.0324,0.013523,0.002678,0.000431,0.005054
130187000,0.0324,0.013523,0.002678,0.000431,0.004701
130188000,0.0324,0.013523,0.002678,0.000431,0.005054
130189000,0.0324,0.013523,0.002678,0.000431,0.004936
130190000,0.0324,0.013523,0.002678,0.000431,0.004936
130191000,0.0324,0.013523,0.002678,0.000431,0.005054
130192000,0.0324,0.013523,0.002678,0.000431,0.004936
130193000,0.0324,0.013523,0.002678,0.000431,0.004819
130194000,0.0324,0.013523,0.002678,0.000431,0.005171
130195000,0.0324,0.013523,0.002678,0.000431,0.005054
130196000,0.0324,0.013523,0.002678,0.000431,0.005054
130197000,0.0324,0.013523,0.002678,0.000431,0.005171
130198000,0.0324,0.013523,0.002678,0.000431,0.004701
130199000,0.0324,0.013523,0.002678,0.000431,0.005406
130200000,0.0324,0.013523,0.002678,0.000431,0.004819
130201000,0.0324,0.013523,0.002678,0.000431,0.004936
130202000,0.0324,0.013523,0.002678,0.000431,0.005171
130203000,0.0324,0.013523,0.002678,0.000431,0.005054
130204000,0.0324,0.013523,0.002678,0.000431,0.005171
130205000,0.0324,0.013523,0.002678,0.000431,0.004936
130206000,0.0324,0.013523,0.002678,0.000431,0.004936
130207000,0.0324,0.013523,0.002678,0.000431,0.005054
130208000,0.0324,0.013523,0.002678,0.000431,0.005054
130209000,0.0324,0.013523,0.002678,0.000431,0.004936
130210000,0.0324,0.013523,0.002678,0.000431,0.005289
130211000,0.0324,0.013523,0.002678,0.000431,0.006229
130212000,0.0324,0.013523,0.002678,0.000431,0.004466
130213000,0.0324,0.013523,0.002678,0.000431,0.004113
130214000,0.0324,0.013523,0.002678,0.000431,0.003996
130215000,0.0324,0.013523,0.002678,0.000431,0.004584
130216000,0.0324,0.013523,0.002678,0.000431,0.003761
130217000,0.0324,0.013523,0.002678,0.000431,0.004349
130218000,0.0324,0.013523,0.002678,0.000431,0.003761
130219000,0.0324,0.013523,0.002678,0.000431,0.004466
130220000,0.0324,0.013523,0.002678,0.000431,0.003996
130221000,0.0324,0.013523,0.002678,0.000431,0.003996
130222000,0.0324,0.013523,0.002678,0.000431,0.004231
130223000,0.0324,0.013523,0.002678,0.000431,0.004231
130224000,0.0324,0.013523,0.002678,0.000431,0.003761
130225000,0.0324,0.013523,0.002678,0.000431,0.004113
130226000,0.0324,0.013523,0.002678,0.000431,0.004349
130227000,0.0324,0.013523,0.002678,0.000431,0.003878
130228000,0.0324,0.013523,0.002678,0.000431,0.004113
130229000,0.0324,0.013523,0.002678,0.000431,0.003996
130230000,0.0324,0.013523,0.002678,0.000431,0.003996
130231000,0.0324,0.013523,0.002678,0.000431,0.008109
130232000,0.0324,0.013523,0.002678,0.000431,0.002351
130233000,0.0324,0.013523,0.002678,0.000431,0.002233
130234000,0.0324,0.013523,0.002678,0.000431,0.002351
130235000,0.0324,0.013523,0.002678,0.000431,0.002586
130236000,0.0324,0.013523,0.002678,0.000431,0.002233
130237000,0.0324,0.013523,0.002678,0.000431,0.002233
130238000,0.0324,0.013523,0.002678,0.000431,0.002586
130239000,0.0324,0.013523,0.002678,0.000431,0.002468
130240000,0.0324,0.013523,0.002678,0.000431,0.002703
130241000,0.0324,0.013523,0.002678,0.000431,0.001528
130242000,0.0324,0.013523,0.002678,0.000431,0.001880
130243000,0.0324,0.013523,0.002678,0.000431,0.002938
130244000,0.0324,0.013523,0.002678,0.000431,0.000705
130245000,0.0324,0.013523,0.002678,0.000431,0.000940
130246000,0.0324,0.013523,0.002678,0.000431,0.000705
130247000,0.0324,0.013523,0.002678,0.000431,0.000940
130248000,0.0324,0.013523,0.002678,0.000431,0.000823
130249000,0.0324,0.013523,0.002678,0.000431,0.000823
130250000,0.0324,0.013523,0.002678,0.000431,0.000823
130251000,0.0324,0.013523,0.002678,0.000431,0.000823
130252000,0.0324,0.013523,0.002678,0.000431,0.000940
130253000,0.0324,0.013523,0.002678,0.000431,0.000823
130254000,0.0324,0.013523,0.002678,0.000431,0.000823
130255000,0.0324,0.013523,0.002678,0.000431,0.000823
130256000,0.0324,0.013523,0.002678,0.000431,0.000823
130257000,0.0324,0.013523,0.002678,0.000431,0.000823
130258000,0.0324,0.013523,0.002678,0.000431,0.000823
130259000,0.0324,0.013523,0.002678,0.000431,0.000940
130260000,0.0324,0.013523,0.002678,0.000431,0.000705
130261000,0.0324,0.013523,0.002678,0.000431,0.000823
130262000,0.0324,0.013523,0.002678,0.000431,0.000940
130263000,0.0324,0.013523,0.002678,0.000431,0.000823
130264000,0.0324,0.013523,0.002678,0.000431,0.000823
130265000,0.0324,0.013523,0.002678,0.000431,0.000823
130266000,0.0324,0.013523,0.002678,0.000431,0.000823
130267000,0.0324,0.013523,0.002678,0.000431,0.000823
130268000,0.0324,0.013523,0.002678,0.000431,0.000940
130269000,0.0324,0.013523,0.002678,0.000431,0.000823
130270000,0.0324,0.013523,0.002678,0.000431,0.000823
130271000,0.0324,0.013523,0.002678,0.000431,0.000705
130272000,0.0324,0.013523,0.002678,0.000431,0.000940
130273000,0.0324,0.013523,0.002678,0.000431,0.000940
130274000,0.0324,0.013523,0.002678,0.000431,0.000705
130275000,0.0324,0.013523,0.002678,0.000431,0.000940
130276000,0.0324,0.013523,0.002678,0.000431,0.000705
130277000,0.0324,0.013523,0.002678,0.000431,0.000940
130278000,0.0324,0.013523,0.002678,0.000431,0.000823
130279000,0.0324,0.013523,0.002678,0.000431,0.000823
130280000,0.0324,0.013523,0.002678,0.000431,0.000940
130281000,0.0324,0.013523,0.002678,0.000431,0.000705
130282000,0.0324,0.013523,0.002678,0.000431,0.000940
130283000,0.0324,0.013523,0.002678,0.000431,0.002351
130284000,0.0324,0.013523,0.002678,0.000431,0.359284
130285000,0.0324,0.013523,0.002678,0.000431,0.658275
130286000,0.0324,0.013523,0.002678,0.000431,0.132102
130287000,0.0324,0.013523,0.002678,0.000431,0.133512
130288000,0.0324,0.013523,0.002678,0.000431,0.139036
130289000,0.0324,0.013523,0.002678,0.000431,0.605035
130290000,0.0324,0.013523,0.002678,0.000431,0.247397
130291000,0.0324,0.013523,0.002678,0.000431,0.265026
130292000,0.0324,0.013523,0.002678,0.000431,0.272313
130293000,0.0324,0.013523,0.002678,0.000431,0.142679
130294000,0.0324,0.013523,0.002678,0.000431,0.148791
130295000,0.0324,0.013523,0.002678,0.000431,0.112239
130296000,0.0324,0.013523,0.002678,0.000431,0.439203
130297000,0.0324,0.013523,0.002678,0.000431,0.088969
130298000,0.0324,0.013523,0.002678,0.000431,0.031498
130299000,0.0324,0.013523,0.002678,0.000431,0.028677
130300000,0.0324,0.013523,0.002678,0.000431,0.023741
130301000,0.0324,0.013523,0.002678,0.000431,0.021390
130302000,0.0324,0.013523,0.002678,0.000431,0.021978
130303000,0.0324,0.013523,0.002678,0.000431,0.017982
130304000,0.0324,0.013523,0.002678,0.000431,0.014573
130305000,0.0324,0.013523,0.002678,0.000431,0.015984
130306000,0.0324,0.013523,0.002678,0.000431,0.014926
130307000,0.0324,0.013523,0.002678,0.000431,0.014691
130308000,0.0324,0.013523,0.002678,0.000431,0.014456
130309000,0.0324,0.013523,0.002678,0.000431,0.014456
130310000,0.0324,0.013523,0.002678,0.000431,0.016219
130311000,0.0324,0.013523,0.002678,0.000431,0.015514
130312000,0.0324,0.013523,0.002678,0.000431,0.013986
130313000,0.0324,0.013523,0.002678,0.000431,0.013281
130314000,0.0324,0.013523,0.002678,0.000431,0.013398
130315000,0.0324,0.013523,0.002678,0.000431,0.013868
130316000,0.0324,0.013523,0.002678,0.000431,0.014103
130317000,0.0324,0.013523,0.002678,0.000431,0.013633
130318000,0.0324,0.013523,0.002678,0.000431,0.013751
130319000,0.0324,0.013523,0.002678,0.000431,0.013751
130320000,0.0324,0.013523,0.002678,0.000431,0.013281
130321000,0.0324,0.013523,0.002678,0.000431,0.014809
130322000,0.0324,0.013523,0.002678,0.000431,0.012928
130323000,0.0324,0.013523,0.002678,0.000431,0.013281
130324000,0.0324,0.013523,0.002678,0.000431,0.015396
130325000,0.0324,0.013523,0.002678,0.000431,0.013751
130326000,0.0324,0.013523,0.002678,0.000431,0.009520
130327000,0.0324,0.013523,0.002678,0.000431,0.009990
130328000,0.0324,0.013523,0.002678,0.000431,0.009872
130329000,0.0324,0.013523,0.002678,0.000431,0.010460
130330000,0.0324,0.013523,0.002678,0.000431,0.009402
130331000,0.0324,0.013523,0.002678,0.000431,0.007992
130332000,0.0324,0.013523,0.002678,0.000431,0.007757
130333000,0.0324,0.013523,0.002678,0.000431,0.007169
130334000,0.0324,0.013523,0.002678,0.000431,0.007522
130335000,0.0324,0.013523,0.002678,0.000431,0.008697
130336000,0.0324,0.013523,0.002678,0.000431,0.007522
130337000,0.0324,0.013523,0.002678,0.000431,0.006699
130338000,0.0324,0.013523,0.002678,0.000431,0.008227
130339000,0.0324,0.013523,0.002678,0.000431,0.006111
130340000,0.0324,0.013523,0.002678,0.000431,0.005876
130341000,0.0324,0.013523,0.002678,0.000431,0.005524
130342000,0.0324,0.013523,0.002678,0.000431,0.005759
130343000,0.0324,0.013523,0.002678,0.000431,0.004819
130344000,0.0324,0.013523,0.002678,0.000431,0.005171
130345000,0.0324,0.013523,0.002678,0.000431,0.005171
130346000,0.0324,0.013523,0.002678,0.000431,0.005171
130347000,0.0324,0.013523,0.002678,0.000431,0.004936
130348000,0.0324,0.013523,0.002678,0.000431,0.005054
130349000,0.0324,0.013523,0.002678,0.000431,0.005054
130350000,0.0324,0.013523,0.002678,0.000431,0.004936
130351000,0.0324,0.013523,0.002678,0.000431,0.005171
130352000,0.0324,0.013523,0.002678,0.000431,0.004701
130353000,0.0324,0.013523,0.002678,0.000431,0.005289
130354000,0.0324,0.013523,0.002678,0.000431,0.004701
130355000,0.0324,0.013523,0.002678,0.000431,0.005641
130356000,0.0324,0.013523,0.002678,0.000431,0.004701
130357000,0.0324,0.013523,0.002678,0.000431,0.003408
130358000,0.0324,0.013523,0.002678,0.000431,0.004584
130359000,0.0324,0.013523,0.002678,0.000431,0.003996
130360000,0.0324,0.013523,0.002678,0.000431,0.004231
130361000,0.0324,0.013523,0.002678,0.000431,0.004113
130362000,0.0324,0.013523,0.002678,0.000431,0.003878
130363000,0.0324,0.013523,0.002678,0.000431,0.004466
130364000,0.0324,0.013523,0.002678,0.000431,0.003996
130365000,0.0324,0.013523,0.002678,0.000431,0.004231
130366000,0.0324,0.013523,0.002678,0.000431,0.003878
130367000,0.0324,0.013523,0.002678,0.000431,0.004349
130368000,0.0324,0.013523,0.002678,0.000431,0.004231
130369000,0.0324,0.013523,0.002678,0.000431,0.005406
130370000,0.0324,0.013523,0.002678,0.000431,0.003173
130371000,0.0324,0.013523,0.002678,0.000431,0.003291
130372000,0.0324,0.013523,0.002678,0.000431,0.003056
130373000,0.0324,0.013523,0.002678,0.000431,0.003408
130374000,0.0324,0.013523,0.002678,0.000431,0.003643
130375000,0.0324,0.013523,0.002678,0.000431,0.004349
130376000,0.0324,0.013523,0.002678,0.000431,0.002703
130377000,0.0324,0.013523,0.002678,0.000431,0.002116
130378000,0.0324,0.013523,0.002678,0.000431,0.002703
130379000,0.0324,0.013523,0.002678,0.000431,0.002586
130380000,0.0324,0.013523,0.002678,0.000431,0.001998
130381000,0.0324,0.013523,0.002678,0.000431,0.002821
130382000,0.0324,0.013523,0.002678,0.000431,0.002116
130383000,0.0324,0.013523,0.002678,0.000431,0.002586
130384000,0.0324,0.013523,0.002678,0.000431,0.002468
130385000,0.0324,0.013523,0.002678,0.000431,0.002116
130386000,0.0324,0.013523,0.002678,0.000431,0.002586
130387000,0.0324,0.013523,0.002678,0.000431,0.002468
130388000,0.0324,0.013523,0.002678,0.000431,0.002468
130389000,0.0324,0.013523,0.002678,0.000431,0.002351
130390000,0.0324,0.013523,0.002678,0.000431,0.002351
130391000,0.0324,0.013523,0.002678,0.000431,0.002586
130392000,0.0324,0.013523,0.002678,0.000431,0.002351
130393000,0.0324,0.013523,0.002678,0.000431,0.002351
130394000,0.0324,0.013523,0.002678,0.000431,0.002586
130395000,0.0324,0.013523,0.002678,0.000431,0.002233
130396000,0.0324,0.013523,0.002678,0.000431,0.002468
130397000,0.0324,0.013523,0.002678,0.000431,0.001998
130398000,0.0324,0.013523,0.002678,0.000431,0.004113
130399000,0.0324,0.013523,0.002678,0.000431,0.001998
130400000,0.0324,0.013523,0.002678,0.000431,0.001175
130401000,0.0324,0.013523,0.002678,0.000431,0.001880
130402000,0.0324,0.013523,0.002678,0.000431,0.001410
130403000,0.0324,0.013523,0.002678,0.000431,0.001645
130404000,0.0324,0.013523,0.002678,0.000431,0.001645
130405000,0.0324,0.013523,0.002678,0.000431,0.001410
130406000,0.0324,0.013523,0.002678,0.000431,0.001880
130407000,0.0324,0.013523,0.002678,0.000431,0.001410
130408000,0.0324,0.013523,0.002678,0.000431,0.001645
130409000,0.0324,0.013523,0.002678,0.000431,0.001763
130410000,0.0324,0.013523,0.002678,0.000431,0.197447
130411000,0.0324,0.013523,0.002678,0.000431,0.577651
130412000,0.0324,0.013523,0.002678,0.000431,0.350469
130413000,0.0324,0.013523,0.002678,0.000431,0.130691
130414000,0.0324,0.013523,0.002678,0.000431,0.132219
130415000,0.0324,0.013523,0.002678,0.000431,0.583880
130416000,0.0324,0.013523,0.002678,0.000431,0.275251
130417000,0.0324,0.013523,0.002678,0.000431,0.243989
130418000,0.0324,0.013523,0.002678,0.000431,0.294996
130419000,0.0324,0.013523,0.002678,0.000431,0.138566
130420000,0.0324,0.013523,0.002678,0.000431,0.142209
130421000,0.0324,0.013523,0.002678,0.000431,0.108831
130422000,0.0324,0.013523,0.002678,0.000431,0.362809
130423000,0.0324,0.013523,0.002678,0.000431,0.296053
130424000,0.0324,0.013523,0.002678,0.000431,0.107656
130425000,0.0324,0.013523,0.002678,0.000431,0.096373
130426000,0.0324,0.013523,0.002678,0.000431,0.082270
130427000,0.0324,0.013523,0.002678,0.000431,0.074630
130428000,0.0324,0.013523,0.002678,0.000431,0.056649
130429000,0.0324,0.013523,0.002678,0.000431,0.051830
130430000,0.0324,0.013523,0.002678,0.000431,0.040900
130431000,0.0324,0.013523,0.002678,0.000431,0.034906
130432000,0.0324,0.013523,0.002678,0.000431,0.038549
130433000,0.0324,0.013523,0.002678,0.000431,0.028207
130434000,0.0324,0.013523,0.002678,0.000431,0.022800
130435000,0.0324,0.013523,0.002678,0.000431,0.026444
130436000,0.0324,0.013523,0.002678,0.000431,0.021390
130437000,0.0324,0.013523,0.002678,0.000431,0.013398
130438000,0.0324,0.013523,0.002678,0.000431,0.015044
130439000,0.0324,0.013523,0.002678,0.000431,0.011988
130440000,0.0324,0.013523,0.002678,0.000431,0.012223
130441000,0.0324,0.013523,0.002678,0.000431,0.013986
130442000,0.0324,0.013523,0.002678,0.000431,0.010930
130443000,0.0324,0.013523,0.002678,0.000431,0.010813
130444000,0.0324,0.013523,0.002678,0.000431,0.011048
130445000,0.0324,0.013523,0.002678,0.000431,0.009167
130446000,0.0324,0.013523,0.002678,0.000431,0.008580
130447000,0.0324,0.013523,0.002678,0.000431,0.010225
130448000,0.0324,0.013523,0.002678,0.000431,0.008462
130449000,0.0324,0.013523,0.002678,0.000431,0.009402
130450000,0.0324,0.013523,0.002678,0.000431,0.008932
130451000,0.0324,0.013523,0.002678,0.000431,0.009637
130452000,0.0324,0.013523,0.002678,0.000431,0.008932
130453000,0.0324,0.013523,0.002678,0.000431,0.008697
130454000,0.0324,0.013523,0.002678,0.000431,0.009285
130455000,0.0324,0.013523,0.002678,0.000431,0.007287
130456000,0.0324,0.013523,0.002678,0.000431,0.008109
130457000,0.0324,0.013523,0.002678,0.000431,0.009167
130458000,0.0324,0.013523,0.002678,0.000431,0.006582
130459000,0.0324,0.013523,0.002678,0.000431,0.011518
130460000,0.0324,0.013523,0.002678,0.000431,0.004701
130461000,0.0324,0.013523,0.002678,0.000431,0.005524
130462000,0.0324,0.013523,0.002678,0.000431,0.004819
130463000,0.0324,0.013523,0.002678,0.000431,0.005171
130464000,0.0324,0.013523,0.002678,0.000431,0.004819
130465000,0.0324,0.013523,0.002678,0.000431,0.005289
130466000,0.0324,0.013523,0.002678,0.000431,0.005759
130467000,0.0324,0.013523,0.002678,0.000431,0.005406
130468000,0.0324,0.013523,0.002678,0.000431,0.003996
130469000,0.0324,0.013523,0.002678,0.000431,0.004231
130470000,0.0324,0.013523,0.002678,0.000431,0.004231
130471000,0.0324,0.013523,0.002678,0.000431,0.005524
130472000,0.0324,0.013523,0.002678,0.000431,0.003526
130473000,0.0324,0.013523,0.002678,0.000431,0.003173
130474000,0.0324,0.013523,0.002678,0.000431,0.003408
130475000,0.0324,0.013523,0.002678,0.000431,0.003291
130476000,0.0324,0.013523,0.002678,0.000431,0.003291
130477000,0.0324,0.013523,0.002678,0.000431,0.003173
130478000,0.0324,0.013523,0.002678,0.000431,0.003173
130479000,0.0324,0.013523,0.002678,0.000431,0.003291
130480000,0.0324,0.013523,0.002678,0.000431,0.002938
130481000,0.0324,0.013523,0.002678,0.000431,0.004349
130482000,0.0324,0.013523,0.002678,0.000431,0.001528
130483000,0.0324,0.013523,0.002678,0.000431,0.002468
130484000,0.0324,0.013523,0.002678,0.000431,0.001998
130485000,0.0324,0.013523,0.002678,0.000431,0.002821
130486000,0.0324,0.013523,0.002678,0.000431,0.001998
130487000,0.0324,0.013523,0.002678,0.000431,0.002468
130488000,0.0324,0.013523,0.002678,0.000431,0.002233
130489000,0.0324,0.013523,0.002678,0.000431,0.002233
130490000,0.0324,0.013523,0.002678,0.000431,0.002821
130491000,0.0324,0.013523,0.002678,0.000431,0.001645
130492000,0.0324,0.013523,0.002678,0.000431,0.002821
130493000,0.0324,0.013523,0.002678,0.000431,0.002233
130494000,0.0324,0.013523,0.002678,0.000431,0.002233
130495000,0.0324,0.013523,0.002678,0.000431,0.002468
130496000,0.0324,0.013523,0.002678,0.000431,0.001998
130497000,0.0324,0.013523,0.002678,0.000431,0.002586
130498000,0.0324,0.013523,0.002678,0.000431,0.002351
130499000,0.0324,0.013523,0.002678,0.000431,0.002351
130500000,0.0324,0.013523,0.002678,0.000431,0.002116
130501000,0.0324,0.013523,0.002678,0.000431,0.002351
130502000,0.0324,0.013523,0.002678,0.000431,0.002233
130503000,0.0324,0.013523,0.002678,0.000431,0.002703
130504000,0.0324,0.013523,0.002678,0.000431,0.001998
130505000,0.0324,0.013523,0.002678,0.000431,0.002468
130506000,0.0324,0.013523,0.002678,0.000431,0.001998
130507000,0.0324,0.013523,0.002678,0.000431,0.002468
130508000,0.0324,0.013523,0.002678,0.000431,0.002821
130509000,0.0324,0.013523,0.002678,0.000431,0.001645
130510000,0.0324,0.013523,0.002678,0.000431,0.002821
130511000,0.0324,0.013523,0.002678,0.000431,0.001880
130512000,0.0324,0.013523,0.002678,0.000431,0.002586
130513000,0.0324,0.013523,0.002678,0.000431,0.002468
130514000,0.0324,0.013523,0.002678,0.000431,0.001998
130515000,0.0324,0.013523,0.002678,0.000431,0.002821
130516000,0.0324,0.013523,0.002678,0.000431,0.001880
130517000,0.0324,0.013523,0.002678,0.000431,0.002586
130518000,0.0324,0.013523,0.002678,0.000431,0.002468
130519000,0.0324,0.013523,0.002678,0.000431,0.001998
130520000,0.0324,0.013523,0.002678,0.000431,0.002468
130521000,0.0324,0.013523,0.002678,0.000431,0.002233
130522000,0.0324,0.013523,0.002678,0.000431,0.002233
130523000,0.0324,0.013523,0.002678,0.000431,0.002468
130524000,0.0324,0.013523,0.002678,0.000431,0.002351
130525000,0.0324,0.013523,0.002678,0.000431,0.002116
130526000,0.0324,0.013523,0.002678,0.000431,0.003761
130527000,0.0324,0.013523,0.002678,0.000431,0.000940
130528000,0.0324,0.013523,0.002678,0.000431,0.000940
130529000,0.0324,0.013523,0.002678,0.000431,0.000823
130530000,0.0324,0.013523,0.002678,0.000431,0.000823
130531000,0.0324,0.013523,0.002678,0.000431,0.000940
130532000,0.0324,0.013523,0.002678,0.000431,0.000940
130533000,0.0324,0.013523,0.002678,0.000431,0.000705
130534000,0.0324,0.013523,0.002678,0.000431,0.000940
130535000,0.0324,0.013523,0.002678,0.000431,0.000940
130536000,0.0324,0.013523,0.002678,0.000431,0.027619
130537000,0.0324,0.013523,0.002678,0.000431,0.561667
130538000,0.0324,0.013523,0.002678,0.000431,0.591402
130539000,0.0324,0.013523,0.002678,0.000431,0.132337
130540000,0.0324,0.013523,0.002678,0.000431,0.133747
130541000,0.0324,0.013523,0.002678,0.000431,0.579061
130542000,0.0324,0.013523,0.002678,0.000431,0.268082
130543000,0.0324,0.013523,0.002678,0.000431,0.295583
130544000,0.0324,0.013523,0.002678,0.000431,0.301107
130545000,0.0324,0.013523,0.002678,0.000431,0.142914
130546000,0.0324,0.013523,0.002678,0.000431,0.143972
130547000,0.0324,0.013523,0.002678,0.000431,0.166067
130548000,0.0324,0.013523,0.002678,0.000431,0.426745
130549000,0.0324,0.013523,0.002678,0.000431,0.057589
130550000,0.0324,0.013523,0.002678,0.000431,0.037491
130551000,0.0324,0.013523,0.002678,0.000431,0.033143
130552000,0.0324,0.013523,0.002678,0.000431,0.030675
130553000,0.0324,0.013523,0.002678,0.000431,0.015749
130554000,0.0324,0.013523,0.002678,0.000431,0.016101
130555000,0.0324,0.013523,0.002678,0.000431,0.011988
130556000,0.0324,0.013523,0.002678,0.000431,0.011988
130557000,0.0324,0.013523,0.002678,0.000431,0.006464
130558000,0.0324,0.013523,0.002678,0.000431,0.008462
130559000,0.0324,0.013523,0.002678,0.000431,0.007992
130560000,0.0324,0.013523,0.002678,0.000431,0.005289
130561000,0.0324,0.013523,0.002678,0.000431,0.007052
130562000,0.0324,0.013523,0.002678,0.000431,0.004113
130563000,0.0324,0.013523,0.002678,0.000431,0.004231
130564000,0.0324,0.013523,0.002678,0.000431,0.003996
130565000,0.0324,0.013523,0.002678,0.000431,0.005994
130566000,0.0324,0.013523,0.002678,0.000431,0.003173
130567000,0.0324,0.013523,0.002678,0.000431,0.003408
130568000,0.0324,0.013523,0.002678,0.000431,0.003173
130569000,0.0324,0.013523,0.002678,0.000431,0.003408
130570000,0.0324,0.013523,0.002678,0.000431,0.004936
130571000,0.0324,0.013523,0.002678,0.000431,0.002351
130572000,0.0324,0.013523,0.002678,0.000431,0.002586
130573000,0.0324,0.013523,0.002678,0.000431,0.002351
130574000,0.0324,0.013523,0.002678,0.000431,0.002586
130575000,0.0324,0.013523,0.002678,0.000431,0.002586
130576000,0.0324,0.013523,0.002678,0.000431,0.002468
130577000,0.0324,0.013523,0.002678,0.000431,0.002468
130578000,0.0324,0.013523,0.002678,0.000431,0.004349
130579000,0.0324,0.013523,0.002678,0.000431,0.001645
130580000,0.0324,0.013523,0.002678,0.000431,0.001645
130581000,0.0324,0.013523,0.002678,0.000431,0.001763
130582000,0.0324,0.013523,0.002678,0.000431,0.001645
130583000,0.0324,0.013523,0.002678,0.000431,0.001645
130584000,0.0324,0.013523,0.002678,0.000431,0.001645
130585000,0.0324,0.013523,0.002678,0.000431,0.001645
130586000,0.0324,0.013523,0.002678,0.000431,0.001763
130587000,0.0324,0.013523,0.002678,0.000431,0.001645
130588000,0.0324,0.013523,0.002678,0.000431,0.001528
130589000,0.0324,0.013523,0.002678,0.000431,0.003878
130590000,0.0324,0.013523,0.002678,0.000431,0.000940
130591000,0.0324,0.013523,0.002678,0.000431,0.000705
130592000,0.0324,0.013523,0.002678,0.000431,0.000940
130593000,0.0324,0.013523,0.002678,0.000431,0.000940
130594000,0.0324,0.013523,0.002678,0.000431,0.000705
130595000,0.0324,0.013523,0.002678,0.000431,0.000940
130596000,0.0324,0.013523,0.002678,0.000431,0.000705
130597000,0.0324,0.013523,0.002678,0.000431,0.000940
130598000,0.0324,0.013523,0.002678,0.000431,0.000940
130599000,0.0324,0.013523,0.002678,0.000431,0.000705
130600000,0.0324,0.013523,0.002678,0.000431,0.000940
130601000,0.0324,0.013523,0.002678,0.000431,0.000705
130602000,0.0324,0.013523,0.002678,0.000431,0.000940
130603000,0.0324,0.013523,0.002678,0.000431,0.002586
130604000,0.0324,0.013523,0.002678,0.000431,0.414757
130605000,0.0324,0.013523,0.002678,0.000431,0.662389
130606000,0.0324,0.013523,0.002678,0.000431,0.136333
130607000,0.0324,0.013523,0.002678,0.000431,0.132102
130608000,0.0324,0.013523,0.002678,0.000431,0.176997
130609000,0.0324,0.013523,0.002678,0.000431,0.557201
130610000,0.0324,0.013523,0.002678,0.000431,0.250218
130611000,0.0324,0.013523,0.002678,0.000431,0.278894
130612000,0.0324,0.013523,0.002678,0.000431,0.234586
130613000,0.0324,0.013523,0.002678,0.000431,0.149848
130614000,0.0324,0.013523,0.002678,0.000431,0.168653
130615000,0.0324,0.013523,0.002678,0.000431,0.115648
130616000,0.0324,0.013523,0.002678,0.000431,0.450603
130617000,0.0324,0.013523,0.002678,0.000431,0.079449
130618000,0.0324,0.013523,0.002678,0.000431,0.053123
130619000,0.0324,0.013523,0.002678,0.000431,0.042663
130620000,0.0324,0.013523,0.002678,0.000431,0.035376
130621000,0.0324,0.013523,0.002678,0.000431,0.029617
130622000,0.0324,0.013523,0.002678,0.000431,0.026561
130623000,0.0324,0.013523,0.002678,0.000431,0.025386
130624000,0.0324,0.013523,0.002678,0.000431,0.017394
130625000,0.0324,0.013523,0.002678,0.000431,0.013516
130626000,0.0324,0.013523,0.002678,0.000431,0.011988
130627000,0.0324,0.013523,0.002678,0.000431,0.009872
130628000,0.0324,0.013523,0.002678,0.000431,0.007404
130629000,0.0324,0.013523,0.002678,0.000431,0.006347
130630000,0.0324,0.013523,0.002678,0.000431,0.005641
130631000,0.0324,0.013523,0.002678,0.000431,0.006111
130632000,0.0324,0.013523,0.002678,0.000431,0.005406
130633000,0.0324,0.013523,0.002678,0.000431,0.005994
130634000,0.0324,0.013523,0.002678,0.000431,0.005406
130635000,0.0324,0.013523,0.002678,0.000431,0.007169
130636000,0.0324,0.013523,0.002678,0.000431,0.005876
130637000,0.0324,0.013523,0.002678,0.000431,0.003173
130638000,0.0324,0.013523,0.002678,0.000431,0.004819
130639000,0.0324,0.013523,0.002678,0.000431,0.002468
130640000,0.0324,0.013523,0.002678,0.000431,0.002468
130641000,0.0324,0.013523,0.002678,0.000431,0.002586
130642000,0.0324,0.013523,0.002678,0.000431,0.002586
130643000,0.0324,0.013523,0.002678,0.000431,0.002703
130644000,0.0324,0.013523,0.002678,0.000431,0.002233
130645000,0.0324,0.013523,0.002678,0.000431,0.002821
130646000,0.0324,0.013523,0.002678,0.000431,0.002351
130647000,0.0324,0.013523,0.002678,0.000431,0.002703
130648000,0.0324,0.013523,0.002678,0.000431,0.002586
130649000,0.0324,0.013523,0.002678,0.000431,0.002468
130650000,0.0324,0.013523,0.002678,0.000431,0.002468
130651000,0.0324,0.013523,0.002678,0.000431,0.002586
130652000,0.0324,0.013523,0.002678,0.000431,0.002586
130653000,0.0324,0.013523,0.002678,0.000431,0.002468
130654000,0.0324,0.013523,0.002678,0.000431,0.002703
130655000,0.0324,0.013523,0.002678,0.000431,0.002351
130656000,0.0324,0.013523,0.002678,0.000431,0.002703
130657000,0.0324,0.013523,0.002678,0.000431,0.003291
130658000,0.0324,0.013523,0.002678,0.000431,0.002703
130659000,0.0324,0.013523,0.002678,0.000431,0.001880
130660000,0.0324,0.013523,0.002678,0.000431,0.001528
130661000,0.0324,0.013523,0.002678,0.000431,0.001763
130662000,0.0324,0.013523,0.002678,0.000431,0.001645
130663000,0.0324,0.013523,0.002678,0.000431,0.001645
130664000,0.0324,0.013523,0.002678,0.000431,0.003526
130665000,0.0324,0.013523,0.002678,0.000431,0.000823
130666000,0.0324,0.013523,0.002678,0.000431,0.000823
130667000,0.0324,0.013523,0.002678,0.000431,0.000823
130668000,0.0324,0.013523,0.002678,0.000431,0.000940
130669000,0.0324,0.013523,0.002678,0.000431,0.000705
130670000,0.0324,0.013523,0.002678,0.000431,0.000823
130671000,0.0324,0.013523,0.002678,0.000431,0.000940
130672000,0.0324,0.013523,0.002678,0.000431,0.000823
130673000,0.0324,0.013523,0.002678,0.000431,0.000823
130674000,0.0324,0.013523,0.002678,0.000431,0.000823
130675000,0.0324,0.013523,0.002678,0.000431,0.000823
130676000,0.0324,0.013523,0.002678,0.000431,0.000823
130677000,0.0324,0.013523,0.002678,0.000431,0.000940
130678000,0.0324,0.013523,0.002678,0.000431,0.000823
130679000,0.0324,0.013523,0.002678,0.000431,0.000823
130680000,0.0324,0.013523,0.002678,0.000431,0.000705
130681000,0.0324,0.013523,0.002678,0.000431,0.000940
130682000,0.0324,0.013523,0.002678,0.000431,0.000940
130683000,0.0324,0.013523,0.002678,0.000431,0.000705
130684000,0.0324,0.013523,0.002678,0.000431,0.000940
130685000,0.0324,0.013523,0.002678,0.000431,0.000705
130686000,0.0324,0.013523,0.002678,0.000431,0.000940
130687000,0.0324,0.013523,0.002678,0.000431,0.000823
130688000,0.0324,0.013523,0.002678,0.000431,0.000823
130689000,0.0324,0.013523,0.002678,0.000431,0.000823
130690000,0.0324,0.013523,0.002678,0.000431,0.000823
130691000,0.0324,0.013523,0.002678,0.000431,0.000823
130692000,0.0324,0.013523,0.002678,0.000431,0.000823
130693000,0.0324,0.013523,0.002678,0.000431,0.000940
130694000,0.0324,0.013523,0.002678,0.000431,0.000705
130695000,0.0324,0.013523,0.002678,0.000431,0.071340
130696000,0.0324,0.013523,0.002678,0.000431,0.491033
130697000,0.0324,0.013523,0.002678,0.000431,0.570129
130698000,0.0324,0.013523,0.002678,0.000431,0.131632
130699000,0.0324,0.013523,0.002678,0.000431,0.134452
130700000,0.0324,0.013523,0.002678,0.000431,0.563430
130701000,0.0324,0.013523,0.002678,0.000431,0.230355
130702000,0.0324,0.013523,0.002678,0.000431,0.278424
130703000,0.0324,0.013523,0.002678,0.000431,0.348471
130704000,0.0324,0.013523,0.002678,0.000431,0.136920
130705000,0.0324,0.013523,0.002678,0.000431,0.156548
130706000,0.0324,0.013523,0.002678,0.000431,0.099429
130707000,0.0324,0.013523,0.002678,0.000431,0.416050
130708000,0.0324,0.013523,0.002678,0.000431,0.167595
130709000,0.0324,0.013523,0.002678,0.000431,0.045718
130710000,0.0324,0.013523,0.002678,0.000431,0.036199
130711000,0.0324,0.013523,0.002678,0.000431,0.032085
130712000,0.0324,0.013523,0.002678,0.000431,0.026561
130713000,0.0324,0.013523,0.002678,0.000431,0.025974
130714000,0.0324,0.013523,0.002678,0.000431,0.020685
130715000,0.0324,0.013523,0.002678,0.000431,0.023271
130716000,0.0324,0.013523,0.002678,0.000431,0.018452
130717000,0.0324,0.013523,0.002678,0.000431,0.014221
130718000,0.0324,0.013523,0.002678,0.000431,0.011283
130719000,0.0324,0.013523,0.002678,0.000431,0.011870
130720000,0.0324,0.013523,0.002678,0.000431,0.011048
130721000,0.0324,0.013523,0.002678,0.000431,0.015984
130722000,0.0324,0.013523,0.002678,0.000431,0.005876
130723000,0.0324,0.013523,0.002678,0.000431,0.007639
130724000,0.0324,0.013523,0.002678,0.000431,0.004466
130725000,0.0324,0.013523,0.002678,0.000431,0.004113
130726000,0.0324,0.013523,0.002678,0.000431,0.004349
130727000,0.0324,0.013523,0.002678,0.000431,0.004349
130728000,0.0324,0.013523,0.002678,0.000431,0.005524
130729000,0.0324,0.013523,0.002678,0.000431,0.003291
130730000,0.0324,0.013523,0.002678,0.000431,0.003526
130731000,0.0324,0.013523,0.002678,0.000431,0.003408
130732000,0.0324,0.013523,0.002678,0.000431,0.003526
130733000,0.0324,0.013523,0.002678,0.000431,0.003291
130734000,0.0324,0.013523,0.002678,0.000431,0.003408
130735000,0.0324,0.013523,0.002678,0.000431,0.003526
130736000,0.0324,0.013523,0.002678,0.000431,0.003526
130737000,0.0324,0.013523,0.002678,0.000431,0.003056
130738000,0.0324,0.013523,0.002678,0.000431,0.003526
130739000,0.0324,0.013523,0.002678,0.000431,0.003643
130740000,0.0324,0.013523,0.002678,0.000431,0.003291
130741000,0.0324,0.013523,0.002678,0.000431,0.003408
130742000,0.0324,0.013523,0.002678,0.000431,0.003408
130743000,0.0324,0.013523,0.002678,0.000431,0.003643
130744000,0.0324,0.013523,0.002678,0.000431,0.005171
130745000,0.0324,0.013523,0.002678,0.000431,0.002233
130746000,0.0324,0.013523,0.002678,0.000431,0.002703
130747000,0.0324,0.013523,0.002678,0.000431,0.002586
130748000,0.0324,0.013523,0.002678,0.000431,0.002468
130749000,0.0324,0.013523,0.002678,0.000431,0.002703
130750000,0.0324,0.013523,0.002678,0.000431,0.002351
130751000,0.0324,0.013523,0.002678,0.000431,0.002703
130752000,0.0324,0.013523,0.002678,0.000431,0.002468
130753000,0.0324,0.013523,0.002678,0.000431,0.002586
130754000,0.0324,0.013523,0.002678,0.000431,0.002586
130755000,0.0324,0.013523,0.002678,0.000431,0.002586
130756000,0.0324,0.013523,0.002678,0.000431,0.004466
130757000,0.0324,0.013523,0.002678,0.000431,0.001645
130758000,0.0324,0.013523,0.002678,0.000431,0.001763
130759000,0.0324,0.013523,0.002678,0.000431,0.001763
130760000,0.0324,0.013523,0.002678,0.000431,0.001528
130761000,0.0324,0.013523,0.002678,0.000431,0.001763
130762000,0.0324,0.013523,0.002678,0.000431,0.001763
130763000,0.0324,0.013523,0.002678,0.000431,0.001880
130764000,0.0324,0.013523,0.002678,0.000431,0.001410
130765000,0.0324,0.013523,0.002678,0.000431,0.001880
130766000,0.0324,0.013523,0.002678,0.000431,0.001763
130767000,0.0324,0.013523,0.002678,0.000431,0.001645
130768000,0.0324,0.013523,0.002678,0.000431,0.001645
130769000,0.0324,0.013523,0.002678,0.000431,0.001763
130770000,0.0324,0.013523,0.002678,0.000431,0.001880
130771000,0.0324,0.013523,0.002678,0.000431,0.001528
130772000,0.0324,0.013523,0.002678,0.000431,0.001763
130773000,0.0324,0.013523,0.002678,0.000431,0.002586
130774000,0.0324,0.013523,0.002678,0.000431,0.002233
130775000,0.0324,0.013523,0.002678,0.000431,0.000823
130776000,0.0324,0.013523,0.002678,0.000431,0.000823
130777000,0.0324,0.013523,0.002678,0.000431,0.000940
130778000,0.0324,0.013523,0.002678,0.000431,0.000705
130779000,0.0324,0.013523,0.002678,0.000431,0.000940
130780000,0.0324,0.013523,0.002678,0.000431,0.000823
130781000,0.0324,0.013523,0.002678,0.000431,0.000823
130782000,0.0324,0.013523,0.002678,0.000431,0.000823
130783000,0.0324,0.013523,0.002678,0.000431,0.000823
130784000,0.0324,0.013523,0.002678,0.000431,0.000823
130785000,0.0324,0.013523,0.002678,0.000431,0.000823
130786000,0.0324,0.013523,0.002678,0.000431,0.000940
130787000,0.0324,0.013523,0.002678,0.000431,0.000705
130788000,0.0324,0.013523,0.002678,0.000431,0.000823
130789000,0.0324,0.013523,0.002678,0.000431,0.000940
130790000,0.0324,0.013523,0.002678,0.000431,0.000823
130791000,0.0324,0.013523,0.002678,0.000431,0.000823
130792000,0.0324,0.013523,0.002678,0.000431,0.000823
130793000,0.0324,0.013523,0.002678,0.000431,0.000705
130794000,0.0324,0.013523,0.002678,0.000431,0.000940
130795000,0.0324,0.013523,0.002678,0.000431,0.000940
130796000,0.0324,0.013523,0.002678,0.000431,0.000705
130797000,0.0324,0.013523,0.002678,0.000431,0.000940
130798000,0.0324,0.013523,0.002678,0.000431,0.000705
130799000,0.0324,0.013523,0.002678,0.000431,0.000940
130800000,0.0324,0.013523,0.002678,0.000431,0.000940
130801000,0.0324,0.013523,0.002678,0.000431,0.000705
130802000,0.0324,0.013523,0.002678,0.000431,0.000940
130803000,0.0324,0.013523,0.002678,0.000431,0.000705
130804000,0.0324,0.013523,0.002678,0.000431,0.000940
130805000,0.0324,0.013523,0.002678,0.000431,0.000823
130806000,0.0324,0.013523,0.002678,0.000431,0.000823
130807000,0.0324,0.013523,0.002678,0.000431,0.000823
130808000,0.0324,0.013523,0.002678,0.000431,0.000823
130809000,0.0324,0.013523,0.002678,0.000431,0.000940
130810000,0.0324,0.013523,0.002678,0.000431,0.000705
130811000,0.0324,0.013523,0.002678,0.000431,0.000940
130812000,0.0324,0.013523,0.002678,0.000431,0.000823
130813000,0.0324,0.013523,0.002678,0.000431,0.000823
130814000,0.0324,0.013523,0.002678,0.000431,0.000823
130815000,0.0324,0.013523,0.002678,0.000431,0.000823
130816000,0.0324,0.013523,0.002678,0.000431,0.000823
130817000,0.0324,0.013523,0.002678,0.000431,0.000823
130818000,0.0324,0.013523,0.002678,0.000431,0.000940
130819000,0.0324,0.013523,0.002678,0.000431,0.000705
130820000,0.0324,0.013523,0.002678,0.000431,0.000940
130821000,0.0324,0.013523,0.002678,0.000431,0.000705
130822000,0.0324,0.013523,0.002678,0.000431,0.000940
130823000,0.0324,0.013523,0.002678,0.000431,0.000823
130824000,0.0324,0.013523,0.002678,0.000431,0.000823
130825000,0.0324,0.013523,0.002678,0.000431,0.000940
130826000,0.0324,0.013523,0.002678,0.000431,0.000705
130827000,0.0324,0.013523,0.002678,0.000431,0.000940
130828000,0.0324,0.013523,0.002678,0.000431,0.000823
130829000,0.0324,0.013523,0.002678,0.000431,0.000823
130830000,0.0324,0.013523,0.002678,0.000431,0.000823
130831000,0.0324,0.013523,0.002678,0.000431,0.000823
130832000,0.0324,0.013523,0.002678,0.000431,0.000940
130833000,0.0324,0.013523,0.002678,0.000431,0.000705
130834000,0.0324,0.013523,0.002678,0.000431,0.000940
130835000,0.0324,0.013523,0.002678,0.000431,0.000823
130836000,0.0324,0.013523,0.002678,0.000431,0.000823
130837000,0.0324,0.013523,0.002678,0.000431,0.000823
130838000,0.0324,0.013523,0.002678,0.000431,0.000823
130839000,0.0324,0.013523,0.002678,0.000431,0.000823
130840000,0.0324,0.013523,0.002678,0.000431,0.000823
130841000,0.0324,0.013523,0.002678,0.000431,0.000823
130842000,0.0324,0.013523,0.002678,0.000431,0.000940
130843000,0.0324,0.013523,0.002678,0.000431,0.000823
130844000,0.0324,0.013523,0.002678,0.000431,0.000823
130845000,0.0324,0.013523,0.002678,0.000431,0.000823
130846000,0.0324,0.013523,0.002678,0.000431,0.000705
130847000,0.0324,0.013523,0.002678,0.000431,0.000940
130848000,0.0324,0.013523,0.002678,0.000431,0.000940
130849000,0.0324,0.013523,0.002678,0.000431,0.000705
130850000,0.0324,0.013523,0.002678,0.000431,0.000940
130851000,0.0324,0.013523,0.002678,0.000431,0.000705
130852000,0.0324,0.013523,0.002678,0.000431,0.000940
130853000,0.0324,0.013523,0.002678,0.000431,0.000823
130854000,0.0324,0.013523,0.002678,0.000431,0.000823
130855000,0.0324,0.013523,0.002678,0.000431,0.000940
130856000,0.0324,0.013523,0.002678,0.000431,0.000705
130857000,0.0324,0.013523,0.002678,0.000431,0.000940
130858000,0.0324,0.013523,0.002678,0.000431,0.000823
130859000,0.0324,0.013523,0.002678,0.000431,0.000823
130860000,0.0324,0.013523,0.002678,0.000431,0.000823
130861000,0.0324,0.013523,0.002678,0.000431,0.000823
130862000,0.0324,0.013523,0.002678,0.000431,0.000940
130863000,0.0324,0.013523,0.002678,0.000431,0.000705
130864000,0.0324,0.013523,0.002678,0.000431,0.000940
130865000,0.0324,0.013523,0.002678,0.000431,0.000823
130866000,0.0324,0.013523,0.002678,0.000431,0.000823
130867000,0.0324,0.013523,0.002678,0.000431,0.000823
130868000,0.0324,0.013523,0.002678,0.000431,0.000823
130869000,0.0324,0.013523,0.002678,0.000431,0.000823
130870000,0.0324,0.013523,0.002678,0.000431,0.000823
130871000,0.0324,0.013523,0.002678,0.000431,0.000940
130872000,0.0324,0.013523,0.002678,0.000431,0.000705
130873000,0.0324,0.013523,0.002678,0.000431,0.000940
130874000,0.0324,0.013523,0.002678,0.000431,0.000705
130875000,0.0324,0.013523,0.002678,0.000431,0.000940
130876000,0.0324,0.013523,0.002678,0.000431,0.000940
130877000,0.0324,0.013523,0.002678,0.000431,0.000705
130878000,0.0324,0.013523,0.002678,0.000431,0.000940
130879000,0.0324,0.013523,0.002678,0.000431,0.000705
130880000,0.0324,0.013523,0.002678,0.000431,0.000823
130881000,0.0324,0.013523,0.002678,0.000431,0.000823
130882000,0.0324,0.013523,0.002678,0.000431,0.000940
130883000,0.0324,0.013523,0.002678,0.000431,0.000823
130884000,0.0324,0.013523,0.002678,0.000431,0.000823
130885000,0.0324,0.013523,0.002678,0.000431,0.000705
130886000,0.0324,0.013523,0.002678,0.000431,0.000940
130887000,0.0324,0.013523,0.002678,0.000431,0.000940
130888000,0.0324,0.013523,0.002678,0.000431,0.000705
130889000,0.0324,0.013523,0.002678,0.000431,0.000940
130890000,0.0324,0.013523,0.002678,0.000431,0.000705
130891000,0.0324,0.013523,0.002678,0.000431,0.000940
130892000,0.0324,0.013523,0.002678,0.000431,0.000823
130893000,0.0324,0.013523,0.002678,0.000431,0.000823
130894000,0.0324,0.013523,0.002678,0.000431,0.000940
130895000,0.0324,0.013523,0.002678,0.000431,0.000705
130896000,0.0324,0.013523,0.002678,0.000431,0.000940
130897000,0.0324,0.013523,0.002678,0.000431,0.000823
130898000,0.0324,0.013523,0.002678,0.000431,0.000823
130899000,0.0324,0.013523,0.002678,0.000431,0.000823
130900000,0.0324,0.013523,0.002678,0.000431,0.000823
130901000,0.0324,0.013523,0.002678,0.000431,0.000823
130902000,0.0324,0.013523,0.002678,0.000431,0.000823
130903000,0.0324,0.013523,0.002678,0.000431,0.000940
130904000,0.0324,0.013523,0.002678,0.000431,0.000705
130905000,0.0324,0.013523,0.002678,0.000431,0.000823
130906000,0.0324,0.013523,0.002678,0.000431,0.000940
130907000,0.0324,0.013523,0.002678,0.000431,0.000823
130908000,0.0324,0.013523,0.002678,0.000431,0.000823
130909000,0.0324,0.013523,0.002678,0.000431,0.000823
130910000,0.0324,0.013523,0.002678,0.000431,0.000823
130911000,0.0324,0.013523,0.002678,0.000431,0.000823
130912000,0.0324,0.013523,0.002678,0.000431,0.000940
130913000,0.0324,0.013523,0.002678,0.000431,0.000823
130914000,0.0324,0.013523,0.002678,0.000431,0.000823
130915000,0.0324,0.013523,0.002678,0.000431,0.000705
130916000,0.0324,0.013523,0.002678,0.000431,0.000940
130917000,0.0324,0.013523,0.002678,0.000431,0.000940
130918000,0.0324,0.013523,0.002678,0.000431,0.000705
130919000,0.0324,0.013523,0.002678,0.000431,0.000940
130920000,0.0324,0.013523,0.002678,0.000431,0.000705
130921000,0.0324,0.013523,0.002678,0.000431,0.000940
130922000,0.0324,0.013523,0.002678,0.000431,0.000823
130923000,0.0324,0.013523,0.002678,0.000431,0.000823
130924000,0.0324,0.013523,0.002678,0.000431,0.000823
130925000,0.0324,0.013523,0.002678,0.000431,0.000823
130926000,0.0324,0.013523,0.002678,0.000431,0.000823
130927000,0.0324,0.013523,0.002678,0.000431,0.000823
130928000,0.0324,0.013523,0.002678,0.000431,0.000940
