Cycle,Area(mm^2),PeakDynamic(W),SubthresholdLeakage(W),GateLeakage(W),RunTimeDynamic(W)
43000000,0.0324,0.013523,0.002678,0.000431,0.000823
43001000,0.0324,0.013523,0.002678,0.000431,0.000940
43002000,0.0324,0.013523,0.002678,0.000431,0.000940
43003000,0.0324,0.013523,0.002678,0.000431,0.000823
43004000,0.0324,0.013523,0.002678,0.000431,0.000823
43005000,0.0324,0.013523,0.002678,0.000431,0.000940
43006000,0.0324,0.013523,0.002678,0.000431,0.000940
43007000,0.0324,0.013523,0.002678,0.000431,0.000823
43008000,0.0324,0.013523,0.002678,0.000431,0.002351
43009000,0.0324,0.013523,0.002678,0.000431,0.377736
43010000,0.0324,0.013523,0.002678,0.000431,0.689538
43011000,0.0324,0.013523,0.002678,0.000431,0.139153
43012000,0.0324,0.013523,0.002678,0.000431,0.133512
43013000,0.0324,0.013523,0.002678,0.000431,0.166655
43014000,0.0324,0.013523,0.002678,0.000431,0.631479
43015000,0.0324,0.013523,0.002678,0.000431,0.251980
43016000,0.0324,0.013523,0.002678,0.000431,0.257152
43017000,0.0324,0.013523,0.002678,0.000431,0.218367
43018000,0.0324,0.013523,0.002678,0.000431,0.142679
43019000,0.0324,0.013523,0.002678,0.000431,0.158663
43020000,0.0324,0.013523,0.002678,0.000431,0.140094
43021000,0.0324,0.013523,0.002678,0.000431,0.462944
43022000,0.0324,0.013523,0.002678,0.000431,0.058647
43023000,0.0324,0.013523,0.002678,0.000431,0.051007
43024000,0.0324,0.013523,0.002678,0.000431,0.036199
43025000,0.0324,0.013523,0.002678,0.000431,0.027737
43026000,0.0324,0.013523,0.002678,0.000431,0.027149
43027000,0.0324,0.013523,0.002678,0.000431,0.021978
43028000,0.0324,0.013523,0.002678,0.000431,0.019980
43029000,0.0324,0.013523,0.002678,0.000431,0.016454
43030000,0.0324,0.013523,0.002678,0.000431,0.016924
43031000,0.0324,0.013523,0.002678,0.000431,0.014221
43032000,0.0324,0.013523,0.002678,0.000431,0.012340
43033000,0.0324,0.013523,0.002678,0.000431,0.014809
43034000,0.0324,0.013523,0.002678,0.000431,0.008227
43035000,0.0324,0.013523,0.002678,0.000431,0.007639
43036000,0.0324,0.013523,0.002678,0.000431,0.006111
43037000,0.0324,0.013523,0.002678,0.000431,0.005994
43038000,0.0324,0.013523,0.002678,0.000431,0.009637
43039000,0.0324,0.013523,0.002678,0.000431,0.008227
43040000,0.0324,0.013523,0.002678,0.000431,0.002586
43041000,0.0324,0.013523,0.002678,0.000431,0.002468
43042000,0.0324,0.013523,0.002678,0.000431,0.002703
43043000,0.0324,0.013523,0.002678,0.000431,0.003643
43044000,0.0324,0.013523,0.002678,0.000431,0.003056
43045000,0.0324,0.013523,0.002678,0.000431,0.001645
43046000,0.0324,0.013523,0.002678,0.000431,0.001763
43047000,0.0324,0.013523,0.002678,0.000431,0.001645
43048000,0.0324,0.013523,0.002678,0.000431,0.001645
43049000,0.0324,0.013523,0.002678,0.000431,0.003408
43050000,0.0324,0.013523,0.002678,0.000431,0.000940
43051000,0.0324,0.013523,0.002678,0.000431,0.000823
43052000,0.0324,0.013523,0.002678,0.000431,0.000823
43053000,0.0324,0.013523,0.002678,0.000431,0.000940
43054000,0.0324,0.013523,0.002678,0.000431,0.000940
43055000,0.0324,0.013523,0.002678,0.000431,0.000823
43056000,0.0324,0.013523,0.002678,0.000431,0.000823
43057000,0.0324,0.013523,0.002678,0.000431,0.000940
43058000,0.0324,0.013523,0.002678,0.000431,0.000940
43059000,0.0324,0.013523,0.002678,0.000431,0.000823
43060000,0.0324,0.013523,0.002678,0.000431,0.000823
43061000,0.0324,0.013523,0.002678,0.000431,0.000940
43062000,0.0324,0.013523,0.002678,0.000431,0.000823
43063000,0.0324,0.013523,0.002678,0.000431,0.000940
43064000,0.0324,0.013523,0.002678,0.000431,0.000823
43065000,0.0324,0.013523,0.002678,0.000431,0.000940
43066000,0.0324,0.013523,0.002678,0.000431,0.000940
43067000,0.0324,0.013523,0.002678,0.000431,0.001880
43068000,0.0324,0.013523,0.002678,0.000431,0.327434
43069000,0.0324,0.013523,0.002678,0.000431,0.649931
43070000,0.0324,0.013523,0.002678,0.000431,0.227887
43071000,0.0324,0.013523,0.002678,0.000431,0.132572
43072000,0.0324,0.013523,0.002678,0.000431,0.137743
43073000,0.0324,0.013523,0.002678,0.000431,0.591754
43074000,0.0324,0.013523,0.002678,0.000431,0.274428
43075000,0.0324,0.013523,0.002678,0.000431,0.247514
43076000,0.0324,0.013523,0.002678,0.000431,0.235291
43077000,0.0324,0.013523,0.002678,0.000431,0.150789
43078000,0.0324,0.013523,0.002678,0.000431,0.174294
43079000,0.0324,0.013523,0.002678,0.000431,0.103777
43080000,0.0324,0.013523,0.002678,0.000431,0.479045
43081000,0.0324,0.013523,0.002678,0.000431,0.069459
43082000,0.0324,0.013523,0.002678,0.000431,0.048657
43083000,0.0324,0.013523,0.002678,0.000431,0.042780
43084000,0.0324,0.013523,0.002678,0.000431,0.040547
43085000,0.0324,0.013523,0.002678,0.000431,0.028794
43086000,0.0324,0.013523,0.002678,0.000431,0.030322
43087000,0.0324,0.013523,0.002678,0.000431,0.023976
43088000,0.0324,0.013523,0.002678,0.000431,0.021155
43089000,0.0324,0.013523,0.002678,0.000431,0.015749
43090000,0.0324,0.013523,0.002678,0.000431,0.012693
43091000,0.0324,0.013523,0.002678,0.000431,0.009285
43092000,0.0324,0.013523,0.002678,0.000431,0.009285
43093000,0.0324,0.013523,0.002678,0.000431,0.010578
43094000,0.0324,0.013523,0.002678,0.000431,0.006582
43095000,0.0324,0.013523,0.002678,0.000431,0.005054
43096000,0.0324,0.013523,0.002678,0.000431,0.005406
43097000,0.0324,0.013523,0.002678,0.000431,0.007052
43098000,0.0324,0.013523,0.002678,0.000431,0.003996
43099000,0.0324,0.013523,0.002678,0.000431,0.004466
43100000,0.0324,0.013523,0.002678,0.000431,0.004231
43101000,0.0324,0.013523,0.002678,0.000431,0.004466
43102000,0.0324,0.013523,0.002678,0.000431,0.005641
43103000,0.0324,0.013523,0.002678,0.000431,0.004466
43104000,0.0324,0.013523,0.002678,0.000431,0.003996
43105000,0.0324,0.013523,0.002678,0.000431,0.002468
43106000,0.0324,0.013523,0.002678,0.000431,0.002586
43107000,0.0324,0.013523,0.002678,0.000431,0.002586
43108000,0.0324,0.013523,0.002678,0.000431,0.002703
43109000,0.0324,0.013523,0.002678,0.000431,0.002703
43110000,0.0324,0.013523,0.002678,0.000431,0.002233
43111000,0.0324,0.013523,0.002678,0.000431,0.002821
43112000,0.0324,0.013523,0.002678,0.000431,0.002703
43113000,0.0324,0.013523,0.002678,0.000431,0.002468
43114000,0.0324,0.013523,0.002678,0.000431,0.002468
43115000,0.0324,0.013523,0.002678,0.000431,0.002703
43116000,0.0324,0.013523,0.002678,0.000431,0.002703
43117000,0.0324,0.013523,0.002678,0.000431,0.002351
43118000,0.0324,0.013523,0.002678,0.000431,0.002703
43119000,0.0324,0.013523,0.002678,0.000431,0.002586
43120000,0.0324,0.013523,0.002678,0.000431,0.002703
43121000,0.0324,0.013523,0.002678,0.000431,0.002351
43122000,0.0324,0.013523,0.002678,0.000431,0.002703
43123000,0.0324,0.013523,0.002678,0.000431,0.002586
43124000,0.0324,0.013523,0.002678,0.000431,0.002703
43125000,0.0324,0.013523,0.002678,0.000431,0.002586
43126000,0.0324,0.013523,0.002678,0.000431,0.002468
43127000,0.0324,0.013523,0.002678,0.000431,0.004349
43128000,0.0324,0.013523,0.002678,0.000431,0.001528
43129000,0.0324,0.013523,0.002678,0.000431,0.001763
43130000,0.0324,0.013523,0.002678,0.000431,0.001763
43131000,0.0324,0.013523,0.002678,0.000431,0.001645
43132000,0.0324,0.013523,0.002678,0.000431,0.001763
43133000,0.0324,0.013523,0.002678,0.000431,0.001645
43134000,0.0324,0.013523,0.002678,0.000431,0.001880
43135000,0.0324,0.013523,0.002678,0.000431,0.001763
43136000,0.0324,0.013523,0.002678,0.000431,0.001528
43137000,0.0324,0.013523,0.002678,0.000431,0.001763
43138000,0.0324,0.013523,0.002678,0.000431,0.001763
43139000,0.0324,0.013523,0.002678,0.000431,0.001528
43140000,0.0324,0.013523,0.002678,0.000431,0.001763
43141000,0.0324,0.013523,0.002678,0.000431,0.002938
43142000,0.0324,0.013523,0.002678,0.000431,0.000940
43143000,0.0324,0.013523,0.002678,0.000431,0.000823
43144000,0.0324,0.013523,0.002678,0.000431,0.013633
43145000,0.0324,0.013523,0.002678,0.000431,0.496909
43146000,0.0324,0.013523,0.002678,0.000431,0.587523
43147000,0.0324,0.013523,0.002678,0.000431,0.133512
43148000,0.0324,0.013523,0.002678,0.000431,0.133394
43149000,0.0324,0.013523,0.002678,0.000431,0.400536
43150000,0.0324,0.013523,0.002678,0.000431,0.379734
43151000,0.0324,0.013523,0.002678,0.000431,0.260560
43152000,0.0324,0.013523,0.002678,0.000431,0.300872
43153000,0.0324,0.013523,0.002678,0.000431,0.180053
43154000,0.0324,0.013523,0.002678,0.000431,0.143149
43155000,0.0324,0.013523,0.002678,0.000431,0.135863
43156000,0.0324,0.013523,0.002678,0.000431,0.235997
43157000,0.0324,0.013523,0.002678,0.000431,0.366218
43158000,0.0324,0.013523,0.002678,0.000431,0.053828
43159000,0.0324,0.013523,0.002678,0.000431,0.039254
43160000,0.0324,0.013523,0.002678,0.000431,0.040665
43161000,0.0324,0.013523,0.002678,0.000431,0.030792
43162000,0.0324,0.013523,0.002678,0.000431,0.032438
43163000,0.0324,0.013523,0.002678,0.000431,0.021508
43164000,0.0324,0.013523,0.002678,0.000431,0.018452
43165000,0.0324,0.013523,0.002678,0.000431,0.014221
43166000,0.0324,0.013523,0.002678,0.000431,0.013281
43167000,0.0324,0.013523,0.002678,0.000431,0.012223
43168000,0.0324,0.013523,0.002678,0.000431,0.009637
43169000,0.0324,0.013523,0.002678,0.000431,0.009520
43170000,0.0324,0.013523,0.002678,0.000431,0.010460
43171000,0.0324,0.013523,0.002678,0.000431,0.006817
43172000,0.0324,0.013523,0.002678,0.000431,0.005759
43173000,0.0324,0.013523,0.002678,0.000431,0.005641
43174000,0.0324,0.013523,0.002678,0.000431,0.006111
43175000,0.0324,0.013523,0.002678,0.000431,0.005171
43176000,0.0324,0.013523,0.002678,0.000431,0.007757
43177000,0.0324,0.013523,0.002678,0.000431,0.005289
43178000,0.0324,0.013523,0.002678,0.000431,0.005054
43179000,0.0324,0.013523,0.002678,0.000431,0.004466
43180000,0.0324,0.013523,0.002678,0.000431,0.005406
43181000,0.0324,0.013523,0.002678,0.000431,0.004584
43182000,0.0324,0.013523,0.002678,0.000431,0.005054
43183000,0.0324,0.013523,0.002678,0.000431,0.005171
43184000,0.0324,0.013523,0.002678,0.000431,0.004466
43185000,0.0324,0.013523,0.002678,0.000431,0.005994
43186000,0.0324,0.013523,0.002678,0.000431,0.003526
43187000,0.0324,0.013523,0.002678,0.000431,0.003408
43188000,0.0324,0.013523,0.002678,0.000431,0.004936
43189000,0.0324,0.013523,0.002678,0.000431,0.002703
43190000,0.0324,0.013523,0.002678,0.000431,0.002703
43191000,0.0324,0.013523,0.002678,0.000431,0.002468
43192000,0.0324,0.013523,0.002678,0.000431,0.002703
43193000,0.0324,0.013523,0.002678,0.000431,0.002586
43194000,0.0324,0.013523,0.002678,0.000431,0.002586
43195000,0.0324,0.013523,0.002678,0.000431,0.002468
43196000,0.0324,0.013523,0.002678,0.000431,0.003526
43197000,0.0324,0.013523,0.002678,0.000431,0.001880
43198000,0.0324,0.013523,0.002678,0.000431,0.001528
43199000,0.0324,0.013523,0.002678,0.000431,0.001763
43200000,0.0324,0.013523,0.002678,0.000431,0.001763
43201000,0.0324,0.013523,0.002678,0.000431,0.001763
43202000,0.0324,0.013523,0.002678,0.000431,0.001645
43203000,0.0324,0.013523,0.002678,0.000431,0.001645
43204000,0.0324,0.013523,0.002678,0.000431,0.001645
43205000,0.0324,0.013523,0.002678,0.000431,0.001763
43206000,0.0324,0.013523,0.002678,0.000431,0.001763
43207000,0.0324,0.013523,0.002678,0.000431,0.001645
43208000,0.0324,0.013523,0.002678,0.000431,0.001880
43209000,0.0324,0.013523,0.002678,0.000431,0.001645
43210000,0.0324,0.013523,0.002678,0.000431,0.001645
43211000,0.0324,0.013523,0.002678,0.000431,0.001880
43212000,0.0324,0.013523,0.002678,0.000431,0.001645
43213000,0.0324,0.013523,0.002678,0.000431,0.001763
43214000,0.0324,0.013523,0.002678,0.000431,0.001528
43215000,0.0324,0.013523,0.002678,0.000431,0.001880
43216000,0.0324,0.013523,0.002678,0.000431,0.001763
43217000,0.0324,0.013523,0.002678,0.000431,0.001645
43218000,0.0324,0.013523,0.002678,0.000431,0.001645
43219000,0.0324,0.013523,0.002678,0.000431,0.001763
43220000,0.0324,0.013523,0.002678,0.000431,0.001880
43221000,0.0324,0.013523,0.002678,0.000431,0.001528
43222000,0.0324,0.013523,0.002678,0.000431,0.001763
43223000,0.0324,0.013523,0.002678,0.000431,0.001763
43224000,0.0324,0.013523,0.002678,0.000431,0.001645
43225000,0.0324,0.013523,0.002678,0.000431,0.001763
43226000,0.0324,0.013523,0.002678,0.000431,0.001645
43227000,0.0324,0.013523,0.002678,0.000431,0.001763
43228000,0.0324,0.013523,0.002678,0.000431,0.001645
43229000,0.0324,0.013523,0.002678,0.000431,0.001763
43230000,0.0324,0.013523,0.002678,0.000431,0.001645
43231000,0.0324,0.013523,0.002678,0.000431,0.001880
43232000,0.0324,0.013523,0.002678,0.000431,0.001528
43233000,0.0324,0.013523,0.002678,0.000431,0.001763
43234000,0.0324,0.013523,0.002678,0.000431,0.001880
43235000,0.0324,0.013523,0.002678,0.000431,0.001645
43236000,0.0324,0.013523,0.002678,0.000431,0.001880
43237000,0.0324,0.013523,0.002678,0.000431,0.001410
43238000,0.0324,0.013523,0.002678,0.000431,0.001880
43239000,0.0324,0.013523,0.002678,0.000431,0.001763
43240000,0.0324,0.013523,0.002678,0.000431,0.001763
43241000,0.0324,0.013523,0.002678,0.000431,0.001645
43242000,0.0324,0.013523,0.002678,0.000431,0.001880
43243000,0.0324,0.013523,0.002678,0.000431,0.001645
43244000,0.0324,0.013523,0.002678,0.000431,0.001763
43245000,0.0324,0.013523,0.002678,0.000431,0.001645
43246000,0.0324,0.013523,0.002678,0.000431,0.001763
43247000,0.0324,0.013523,0.002678,0.000431,0.001763
43248000,0.0324,0.013523,0.002678,0.000431,0.001645
43249000,0.0324,0.013523,0.002678,0.000431,0.001528
43250000,0.0324,0.013523,0.002678,0.000431,0.001880
43251000,0.0324,0.013523,0.002678,0.000431,0.001763
43252000,0.0324,0.013523,0.002678,0.000431,0.001645
43253000,0.0324,0.013523,0.002678,0.000431,0.001763
43254000,0.0324,0.013523,0.002678,0.000431,0.001645
43255000,0.0324,0.013523,0.002678,0.000431,0.001763
43256000,0.0324,0.013523,0.002678,0.000431,0.001763
43257000,0.0324,0.013523,0.002678,0.000431,0.001645
43258000,0.0324,0.013523,0.002678,0.000431,0.001880
43259000,0.0324,0.013523,0.002678,0.000431,0.001645
43260000,0.0324,0.013523,0.002678,0.000431,0.001763
43261000,0.0324,0.013523,0.002678,0.000431,0.001645
43262000,0.0324,0.013523,0.002678,0.000431,0.001763
43263000,0.0324,0.013523,0.002678,0.000431,0.001763
43264000,0.0324,0.013523,0.002678,0.000431,0.001645
43265000,0.0324,0.013523,0.002678,0.000431,0.003996
43266000,0.0324,0.013523,0.002678,0.000431,0.000705
43267000,0.0324,0.013523,0.002678,0.000431,0.000940
43268000,0.0324,0.013523,0.002678,0.000431,0.000823
43269000,0.0324,0.013523,0.002678,0.000431,0.000823
43270000,0.0324,0.013523,0.002678,0.000431,0.000823
43271000,0.0324,0.013523,0.002678,0.000431,0.000823
43272000,0.0324,0.013523,0.002678,0.000431,0.000823
43273000,0.0324,0.013523,0.002678,0.000431,0.000823
43274000,0.0324,0.013523,0.002678,0.000431,0.000823
43275000,0.0324,0.013523,0.002678,0.000431,0.000823
43276000,0.0324,0.013523,0.002678,0.000431,0.000940
43277000,0.0324,0.013523,0.002678,0.000431,0.000823
43278000,0.0324,0.013523,0.002678,0.000431,0.000823
43279000,0.0324,0.013523,0.002678,0.000431,0.000705
43280000,0.0324,0.013523,0.002678,0.000431,0.000940
43281000,0.0324,0.013523,0.002678,0.000431,0.000940
43282000,0.0324,0.013523,0.002678,0.000431,0.000705
43283000,0.0324,0.013523,0.002678,0.000431,0.000940
43284000,0.0324,0.013523,0.002678,0.000431,0.000705
43285000,0.0324,0.013523,0.002678,0.000431,0.000940
43286000,0.0324,0.013523,0.002678,0.000431,0.061937
43287000,0.0324,0.013523,0.002678,0.000431,0.473874
43288000,0.0324,0.013523,0.002678,0.000431,0.595515
43289000,0.0324,0.013523,0.002678,0.000431,0.131044
43290000,0.0324,0.013523,0.002678,0.000431,0.134100
43291000,0.0324,0.013523,0.002678,0.000431,0.630774
43292000,0.0324,0.013523,0.002678,0.000431,0.239993
43293000,0.0324,0.013523,0.002678,0.000431,0.270197
43294000,0.0324,0.013523,0.002678,0.000431,0.301107
43295000,0.0324,0.013523,0.002678,0.000431,0.141857
43296000,0.0324,0.013523,0.002678,0.000431,0.165480
43297000,0.0324,0.013523,0.002678,0.000431,0.118586
43298000,0.0324,0.013523,0.002678,0.000431,0.489035
43299000,0.0324,0.013523,0.002678,0.000431,0.120584
43300000,0.0324,0.013523,0.002678,0.000431,0.086148
43301000,0.0324,0.013523,0.002678,0.000431,0.053593
43302000,0.0324,0.013523,0.002678,0.000431,0.038079
43303000,0.0324,0.013523,0.002678,0.000431,0.031145
43304000,0.0324,0.013523,0.002678,0.000431,0.017042
43305000,0.0324,0.013523,0.002678,0.000431,0.015866
43306000,0.0324,0.013523,0.002678,0.000431,0.009050
43307000,0.0324,0.013523,0.002678,0.000431,0.007052
43308000,0.0324,0.013523,0.002678,0.000431,0.005054
43309000,0.0324,0.013523,0.002678,0.000431,0.004349
43310000,0.0324,0.013523,0.002678,0.000431,0.003526
43311000,0.0324,0.013523,0.002678,0.000431,0.003761
43312000,0.0324,0.013523,0.002678,0.000431,0.003526
43313000,0.0324,0.013523,0.002678,0.000431,0.006699
43314000,0.0324,0.013523,0.002678,0.000431,0.001645
43315000,0.0324,0.013523,0.002678,0.000431,0.001645
43316000,0.0324,0.013523,0.002678,0.000431,0.001880
43317000,0.0324,0.013523,0.002678,0.000431,0.001880
43318000,0.0324,0.013523,0.002678,0.000431,0.001645
43319000,0.0324,0.013523,0.002678,0.000431,0.001645
43320000,0.0324,0.013523,0.002678,0.000431,0.002468
43321000,0.0324,0.013523,0.002678,0.000431,0.001763
43322000,0.0324,0.013523,0.002678,0.000431,0.000940
43323000,0.0324,0.013523,0.002678,0.000431,0.000823
43324000,0.0324,0.013523,0.002678,0.000431,0.000940
43325000,0.0324,0.013523,0.002678,0.000431,0.000823
43326000,0.0324,0.013523,0.002678,0.000431,0.000823
43327000,0.0324,0.013523,0.002678,0.000431,0.000940
43328000,0.0324,0.013523,0.002678,0.000431,0.000940
43329000,0.0324,0.013523,0.002678,0.000431,0.000823
43330000,0.0324,0.013523,0.002678,0.000431,0.000823
43331000,0.0324,0.013523,0.002678,0.000431,0.000940
43332000,0.0324,0.013523,0.002678,0.000431,0.000940
43333000,0.0324,0.013523,0.002678,0.000431,0.000705
43334000,0.0324,0.013523,0.002678,0.000431,0.000940
43335000,0.0324,0.013523,0.002678,0.000431,0.000940
43336000,0.0324,0.013523,0.002678,0.000431,0.000940
43337000,0.0324,0.013523,0.002678,0.000431,0.000705
43338000,0.0324,0.013523,0.002678,0.000431,0.000940
43339000,0.0324,0.013523,0.002678,0.000431,0.000940
43340000,0.0324,0.013523,0.002678,0.000431,0.000823
43341000,0.0324,0.013523,0.002678,0.000431,0.000940
43342000,0.0324,0.013523,0.002678,0.000431,0.000823
43343000,0.0324,0.013523,0.002678,0.000431,0.000940
43344000,0.0324,0.013523,0.002678,0.000431,0.000823
43345000,0.0324,0.013523,0.002678,0.000431,0.000823
43346000,0.0324,0.013523,0.002678,0.000431,0.000940
43347000,0.0324,0.013523,0.002678,0.000431,0.000940
43348000,0.0324,0.013523,0.002678,0.000431,0.000705
43349000,0.0324,0.013523,0.002678,0.000431,0.000940
43350000,0.0324,0.013523,0.002678,0.000431,0.000940
43351000,0.0324,0.013523,0.002678,0.000431,0.000940
43352000,0.0324,0.013523,0.002678,0.000431,0.000705
43353000,0.0324,0.013523,0.002678,0.000431,0.000940
43354000,0.0324,0.013523,0.002678,0.000431,0.000940
43355000,0.0324,0.013523,0.002678,0.000431,0.000823
43356000,0.0324,0.013523,0.002678,0.000431,0.000823
43357000,0.0324,0.013523,0.002678,0.000431,0.000940
43358000,0.0324,0.013523,0.002678,0.000431,0.000940
43359000,0.0324,0.013523,0.002678,0.000431,0.000823
43360000,0.0324,0.013523,0.002678,0.000431,0.000823
43361000,0.0324,0.013523,0.002678,0.000431,0.000940
43362000,0.0324,0.013523,0.002678,0.000431,0.000823
43363000,0.0324,0.013523,0.002678,0.000431,0.000940
43364000,0.0324,0.013523,0.002678,0.000431,0.000823
43365000,0.0324,0.013523,0.002678,0.000431,0.000940
43366000,0.0324,0.013523,0.002678,0.000431,0.000823
43367000,0.0324,0.013523,0.002678,0.000431,0.000823
43368000,0.0324,0.013523,0.002678,0.000431,0.000940
43369000,0.0324,0.013523,0.002678,0.000431,0.000940
43370000,0.0324,0.013523,0.002678,0.000431,0.000823
43371000,0.0324,0.013523,0.002678,0.000431,0.000823
43372000,0.0324,0.013523,0.002678,0.000431,0.000940
43373000,0.0324,0.013523,0.002678,0.000431,0.000940
43374000,0.0324,0.013523,0.002678,0.000431,0.000823
43375000,0.0324,0.013523,0.002678,0.000431,0.000823
43376000,0.0324,0.013523,0.002678,0.000431,0.000940
43377000,0.0324,0.013523,0.002678,0.000431,0.000940
43378000,0.0324,0.013523,0.002678,0.000431,0.000940
43379000,0.0324,0.013523,0.002678,0.000431,0.000823
43380000,0.0324,0.013523,0.002678,0.000431,0.000823
43381000,0.0324,0.013523,0.002678,0.000431,0.000940
43382000,0.0324,0.013523,0.002678,0.000431,0.000940
43383000,0.0324,0.013523,0.002678,0.000431,0.000705
43384000,0.0324,0.013523,0.002678,0.000431,0.000940
43385000,0.0324,0.013523,0.002678,0.000431,0.000940
43386000,0.0324,0.013523,0.002678,0.000431,0.000940
43387000,0.0324,0.013523,0.002678,0.000431,0.000705
43388000,0.0324,0.013523,0.002678,0.000431,0.000940
43389000,0.0324,0.013523,0.002678,0.000431,0.000940
43390000,0.0324,0.013523,0.002678,0.000431,0.000823
43391000,0.0324,0.013523,0.002678,0.000431,0.000823
43392000,0.0324,0.013523,0.002678,0.000431,0.000940
43393000,0.0324,0.013523,0.002678,0.000431,0.000940
43394000,0.0324,0.013523,0.002678,0.000431,0.000823
43395000,0.0324,0.013523,0.002678,0.000431,0.000823
43396000,0.0324,0.013523,0.002678,0.000431,0.000940
43397000,0.0324,0.013523,0.002678,0.000431,0.000823
43398000,0.0324,0.013523,0.002678,0.000431,0.000823
43399000,0.0324,0.013523,0.002678,0.000431,0.000940
43400000,0.0324,0.013523,0.002678,0.000431,0.000940
43401000,0.0324,0.013523,0.002678,0.000431,0.000940
43402000,0.0324,0.013523,0.002678,0.000431,0.000705
43403000,0.0324,0.013523,0.002678,0.000431,0.000940
43404000,0.0324,0.013523,0.002678,0.000431,0.000940
43405000,0.0324,0.013523,0.002678,0.000431,0.000823
43406000,0.0324,0.013523,0.002678,0.000431,0.000823
43407000,0.0324,0.013523,0.002678,0.000431,0.000940
43408000,0.0324,0.013523,0.002678,0.000431,0.000940
43409000,0.0324,0.013523,0.002678,0.000431,0.000823
43410000,0.0324,0.013523,0.002678,0.000431,0.000823
43411000,0.0324,0.013523,0.002678,0.000431,0.000940
43412000,0.0324,0.013523,0.002678,0.000431,0.000823
43413000,0.0324,0.013523,0.002678,0.000431,0.000940
43414000,0.0324,0.013523,0.002678,0.000431,0.000823
43415000,0.0324,0.013523,0.002678,0.000431,0.000940
43416000,0.0324,0.013523,0.002678,0.000431,0.000823
43417000,0.0324,0.013523,0.002678,0.000431,0.000823
43418000,0.0324,0.013523,0.002678,0.000431,0.000940
43419000,0.0324,0.013523,0.002678,0.000431,0.011635
43420000,0.0324,0.013523,0.002678,0.000431,0.562960
43421000,0.0324,0.013523,0.002678,0.000431,0.604447
43422000,0.0324,0.013523,0.002678,0.000431,0.135628
43423000,0.0324,0.013523,0.002678,0.000431,0.131397
43424000,0.0324,0.013523,0.002678,0.000431,0.523353
43425000,0.0324,0.013523,0.002678,0.000431,0.293468
43426000,0.0324,0.013523,0.002678,0.000431,0.276074
43427000,0.0324,0.013523,0.002678,0.000431,0.292175
43428000,0.0324,0.013523,0.002678,0.000431,0.146205
43429000,0.0324,0.013523,0.002678,0.000431,0.159956
43430000,0.0324,0.013523,0.002678,0.000431,0.158428
43431000,0.0324,0.013523,0.002678,0.000431,0.461533
43432000,0.0324,0.013523,0.002678,0.000431,0.079684
43433000,0.0324,0.013523,0.002678,0.000431,0.058412
43434000,0.0324,0.013523,0.002678,0.000431,0.057001
43435000,0.0324,0.013523,0.002678,0.000431,0.052300
43436000,0.0324,0.013523,0.002678,0.000431,0.043838
43437000,0.0324,0.013523,0.002678,0.000431,0.034553
43438000,0.0324,0.013523,0.002678,0.000431,0.027031
43439000,0.0324,0.013523,0.002678,0.000431,0.023623
43440000,0.0324,0.013523,0.002678,0.000431,0.023858
43441000,0.0324,0.013523,0.002678,0.000431,0.017394
43442000,0.0324,0.013523,0.002678,0.000431,0.013163
43443000,0.0324,0.013523,0.002678,0.000431,0.014338
43444000,0.0324,0.013523,0.002678,0.000431,0.012811
43445000,0.0324,0.013523,0.002678,0.000431,0.014926
43446000,0.0324,0.013523,0.002678,0.000431,0.012105
43447000,0.0324,0.013523,0.002678,0.000431,0.009872
43448000,0.0324,0.013523,0.002678,0.000431,0.004349
43449000,0.0324,0.013523,0.002678,0.000431,0.005524
43450000,0.0324,0.013523,0.002678,0.000431,0.003408
43451000,0.0324,0.013523,0.002678,0.000431,0.003173
43452000,0.0324,0.013523,0.002678,0.000431,0.004113
43453000,0.0324,0.013523,0.002678,0.000431,0.002233
43454000,0.0324,0.013523,0.002678,0.000431,0.002586
43455000,0.0324,0.013523,0.002678,0.000431,0.002468
43456000,0.0324,0.013523,0.002678,0.000431,0.002351
43457000,0.0324,0.013523,0.002678,0.000431,0.004936
43458000,0.0324,0.013523,0.002678,0.000431,0.001645
43459000,0.0324,0.013523,0.002678,0.000431,0.001645
43460000,0.0324,0.013523,0.002678,0.000431,0.001410
43461000,0.0324,0.013523,0.002678,0.000431,0.001645
43462000,0.0324,0.013523,0.002678,0.000431,0.001528
43463000,0.0324,0.013523,0.002678,0.000431,0.001528
43464000,0.0324,0.013523,0.002678,0.000431,0.001880
43465000,0.0324,0.013523,0.002678,0.000431,0.001175
43466000,0.0324,0.013523,0.002678,0.000431,0.001880
43467000,0.0324,0.013523,0.002678,0.000431,0.001528
43468000,0.0324,0.013523,0.002678,0.000431,0.001528
43469000,0.0324,0.013523,0.002678,0.000431,0.001645
43470000,0.0324,0.013523,0.002678,0.000431,0.001410
43471000,0.0324,0.013523,0.002678,0.000431,0.001645
43472000,0.0324,0.013523,0.002678,0.000431,0.001293
43473000,0.0324,0.013523,0.002678,0.000431,0.000823
43474000,0.0324,0.013523,0.002678,0.000431,0.001880
43475000,0.0324,0.013523,0.002678,0.000431,0.391251
43476000,0.0324,0.013523,0.002678,0.000431,0.688833
43477000,0.0324,0.013523,0.002678,0.000431,0.149496
43478000,0.0324,0.013523,0.002678,0.000431,0.138918
43479000,0.0324,0.013523,0.002678,0.000431,0.196037
43480000,0.0324,0.013523,0.002678,0.000431,0.591989
43481000,0.0324,0.013523,0.002678,0.000431,0.241991
43482000,0.0324,0.013523,0.002678,0.000431,0.291470
43483000,0.0324,0.013523,0.002678,0.000431,0.192394
43484000,0.0324,0.013523,0.002678,0.000431,0.142444
43485000,0.0324,0.013523,0.002678,0.000431,0.133865
43486000,0.0324,0.013523,0.002678,0.000431,0.257739
43487000,0.0324,0.013523,0.002678,0.000431,0.332605
43488000,0.0324,0.013523,0.002678,0.000431,0.037256
43489000,0.0324,0.013523,0.002678,0.000431,0.030792
43490000,0.0324,0.013523,0.002678,0.000431,0.025504
43491000,0.0324,0.013523,0.002678,0.000431,0.017277
43492000,0.0324,0.013523,0.002678,0.000431,0.020685
43493000,0.0324,0.013523,0.002678,0.000431,0.011870
43494000,0.0324,0.013523,0.002678,0.000431,0.013398
43495000,0.0324,0.013523,0.002678,0.000431,0.012458
43496000,0.0324,0.013523,0.002678,0.000431,0.014456
43497000,0.0324,0.013523,0.002678,0.000431,0.011870
43498000,0.0324,0.013523,0.002678,0.000431,0.008932
43499000,0.0324,0.013523,0.002678,0.000431,0.006699
43500000,0.0324,0.013523,0.002678,0.000431,0.006817
43501000,0.0324,0.013523,0.002678,0.000431,0.005994
43502000,0.0324,0.013523,0.002678,0.000431,0.005876
43503000,0.0324,0.013523,0.002678,0.000431,0.006347
43504000,0.0324,0.013523,0.002678,0.000431,0.005994
43505000,0.0324,0.013523,0.002678,0.000431,0.007404
43506000,0.0324,0.013523,0.002678,0.000431,0.005406
43507000,0.0324,0.013523,0.002678,0.000431,0.005524
43508000,0.0324,0.013523,0.002678,0.000431,0.004584
43509000,0.0324,0.013523,0.002678,0.000431,0.003643
43510000,0.0324,0.013523,0.002678,0.000431,0.003643
43511000,0.0324,0.013523,0.002678,0.000431,0.003291
43512000,0.0324,0.013523,0.002678,0.000431,0.003996
43513000,0.0324,0.013523,0.002678,0.000431,0.003761
43514000,0.0324,0.013523,0.002678,0.000431,0.002703
43515000,0.0324,0.013523,0.002678,0.000431,0.002468
43516000,0.0324,0.013523,0.002678,0.000431,0.002586
43517000,0.0324,0.013523,0.002678,0.000431,0.005876
43518000,0.0324,0.013523,0.002678,0.000431,0.000940
43519000,0.0324,0.013523,0.002678,0.000431,0.000823
43520000,0.0324,0.013523,0.002678,0.000431,0.000823
43521000,0.0324,0.013523,0.002678,0.000431,0.000940
43522000,0.0324,0.013523,0.002678,0.000431,0.000940
43523000,0.0324,0.013523,0.002678,0.000431,0.000823
43524000,0.0324,0.013523,0.002678,0.000431,0.000823
43525000,0.0324,0.013523,0.002678,0.000431,0.000940
43526000,0.0324,0.013523,0.002678,0.000431,0.000823
43527000,0.0324,0.013523,0.002678,0.000431,0.000940
43528000,0.0324,0.013523,0.002678,0.000431,0.000823
43529000,0.0324,0.013523,0.002678,0.000431,0.000940
43530000,0.0324,0.013523,0.002678,0.000431,0.060174
43531000,0.0324,0.013523,0.002678,0.000431,0.424747
43532000,0.0324,0.013523,0.002678,0.000431,0.603507
43533000,0.0324,0.013523,0.002678,0.000431,0.130691
43534000,0.0324,0.013523,0.002678,0.000431,0.134922
43535000,0.0324,0.013523,0.002678,0.000431,0.484921
43536000,0.0324,0.013523,0.002678,0.000431,0.277954
43537000,0.0324,0.013523,0.002678,0.000431,0.228240
43538000,0.0324,0.013523,0.002678,0.000431,0.315563
43539000,0.0324,0.013523,0.002678,0.000431,0.185459
43540000,0.0324,0.013523,0.002678,0.000431,0.142797
43541000,0.0324,0.013523,0.002678,0.000431,0.159838
43542000,0.0324,0.013523,0.002678,0.000431,0.135157
43543000,0.0324,0.013523,0.002678,0.000431,0.455657
43544000,0.0324,0.013523,0.002678,0.000431,0.066874
43545000,0.0324,0.013523,0.002678,0.000431,0.058176
43546000,0.0324,0.013523,0.002678,0.000431,0.047246
43547000,0.0324,0.013523,0.002678,0.000431,0.037491
43548000,0.0324,0.013523,0.002678,0.000431,0.026796
43549000,0.0324,0.013523,0.002678,0.000431,0.024681
43550000,0.0324,0.013523,0.002678,0.000431,0.024328
43551000,0.0324,0.013523,0.002678,0.000431,0.015161
43552000,0.0324,0.013523,0.002678,0.000431,0.015631
43553000,0.0324,0.013523,0.002678,0.000431,0.011753
43554000,0.0324,0.013523,0.002678,0.000431,0.008697
43555000,0.0324,0.013523,0.002678,0.000431,0.011048
43556000,0.0324,0.013523,0.002678,0.000431,0.008462
43557000,0.0324,0.013523,0.002678,0.000431,0.007639
43558000,0.0324,0.013523,0.002678,0.000431,0.006582
43559000,0.0324,0.013523,0.002678,0.000431,0.006582
43560000,0.0324,0.013523,0.002678,0.000431,0.007169
43561000,0.0324,0.013523,0.002678,0.000431,0.007052
43562000,0.0324,0.013523,0.002678,0.000431,0.006817
43563000,0.0324,0.013523,0.002678,0.000431,0.002821
43564000,0.0324,0.013523,0.002678,0.000431,0.001880
43565000,0.0324,0.013523,0.002678,0.000431,0.001645
43566000,0.0324,0.013523,0.002678,0.000431,0.003996
43567000,0.0324,0.013523,0.002678,0.000431,0.000940
43568000,0.0324,0.013523,0.002678,0.000431,0.000823
43569000,0.0324,0.013523,0.002678,0.000431,0.000940
43570000,0.0324,0.013523,0.002678,0.000431,0.000823
43571000,0.0324,0.013523,0.002678,0.000431,0.000823
43572000,0.0324,0.013523,0.002678,0.000431,0.000940
43573000,0.0324,0.013523,0.002678,0.000431,0.000940
43574000,0.0324,0.013523,0.002678,0.000431,0.000823
43575000,0.0324,0.013523,0.002678,0.000431,0.000823
43576000,0.0324,0.013523,0.002678,0.000431,0.000940
43577000,0.0324,0.013523,0.002678,0.000431,0.000940
43578000,0.0324,0.013523,0.002678,0.000431,0.000823
43579000,0.0324,0.013523,0.002678,0.000431,0.000823
43580000,0.0324,0.013523,0.002678,0.000431,0.000940
43581000,0.0324,0.013523,0.002678,0.000431,0.000940
43582000,0.0324,0.013523,0.002678,0.000431,0.000823
43583000,0.0324,0.013523,0.002678,0.000431,0.000823
43584000,0.0324,0.013523,0.002678,0.000431,0.000940
43585000,0.0324,0.013523,0.002678,0.000431,0.000823
43586000,0.0324,0.013523,0.002678,0.000431,0.000940
43587000,0.0324,0.013523,0.002678,0.000431,0.000823
43588000,0.0324,0.013523,0.002678,0.000431,0.000940
43589000,0.0324,0.013523,0.002678,0.000431,0.000823
43590000,0.0324,0.013523,0.002678,0.000431,0.000823
43591000,0.0324,0.013523,0.002678,0.000431,0.000940
43592000,0.0324,0.013523,0.002678,0.000431,0.000940
43593000,0.0324,0.013523,0.002678,0.000431,0.000823
43594000,0.0324,0.013523,0.002678,0.000431,0.000823
43595000,0.0324,0.013523,0.002678,0.000431,0.000940
43596000,0.0324,0.013523,0.002678,0.000431,0.000940
43597000,0.0324,0.013523,0.002678,0.000431,0.000705
43598000,0.0324,0.013523,0.002678,0.000431,0.000940
43599000,0.0324,0.013523,0.002678,0.000431,0.000940
43600000,0.0324,0.013523,0.002678,0.000431,0.000940
43601000,0.0324,0.013523,0.002678,0.000431,0.017512
43602000,0.0324,0.013523,0.002678,0.000431,0.522295
43603000,0.0324,0.013523,0.002678,0.000431,0.591049
43604000,0.0324,0.013523,0.002678,0.000431,0.132102
43605000,0.0324,0.013523,0.002678,0.000431,0.133982
43606000,0.0324,0.013523,0.002678,0.000431,0.531110
43607000,0.0324,0.013523,0.002678,0.000431,0.266554
43608000,0.0324,0.013523,0.002678,0.000431,0.263263
43609000,0.0324,0.013523,0.002678,0.000431,0.309804
43610000,0.0324,0.013523,0.002678,0.000431,0.140799
43611000,0.0324,0.013523,0.002678,0.000431,0.147263
43612000,0.0324,0.013523,0.002678,0.000431,0.115060
43613000,0.0324,0.013523,0.002678,0.000431,0.341654
43614000,0.0324,0.013523,0.002678,0.000431,0.282890
43615000,0.0324,0.013523,0.002678,0.000431,0.063583
43616000,0.0324,0.013523,0.002678,0.000431,0.052770
43617000,0.0324,0.013523,0.002678,0.000431,0.045718
43618000,0.0324,0.013523,0.002678,0.000431,0.031027
43619000,0.0324,0.013523,0.002678,0.000431,0.027737
43620000,0.0324,0.013523,0.002678,0.000431,0.021390
43621000,0.0324,0.013523,0.002678,0.000431,0.014221
43622000,0.0324,0.013523,0.002678,0.000431,0.010225
43623000,0.0324,0.013523,0.002678,0.000431,0.009402
43624000,0.0324,0.013523,0.002678,0.000431,0.011988
43625000,0.0324,0.013523,0.002678,0.000431,0.007992
43626000,0.0324,0.013523,0.002678,0.000431,0.008109
43627000,0.0324,0.013523,0.002678,0.000431,0.010460
43628000,0.0324,0.013523,0.002678,0.000431,0.007404
43629000,0.0324,0.013523,0.002678,0.000431,0.007639
43630000,0.0324,0.013523,0.002678,0.000431,0.006934
43631000,0.0324,0.013523,0.002678,0.000431,0.007874
43632000,0.0324,0.013523,0.002678,0.000431,0.007522
43633000,0.0324,0.013523,0.002678,0.000431,0.007052
43634000,0.0324,0.013523,0.002678,0.000431,0.008697
43635000,0.0324,0.013523,0.002678,0.000431,0.006582
43636000,0.0324,0.013523,0.002678,0.000431,0.005994
43637000,0.0324,0.013523,0.002678,0.000431,0.005641
43638000,0.0324,0.013523,0.002678,0.000431,0.005994
43639000,0.0324,0.013523,0.002678,0.000431,0.006229
43640000,0.0324,0.013523,0.002678,0.000431,0.005406
43641000,0.0324,0.013523,0.002678,0.000431,0.005994
43642000,0.0324,0.013523,0.002678,0.000431,0.005759
43643000,0.0324,0.013523,0.002678,0.000431,0.004349
43644000,0.0324,0.013523,0.002678,0.000431,0.004231
43645000,0.0324,0.013523,0.002678,0.000431,0.004231
43646000,0.0324,0.013523,0.002678,0.000431,0.004466
43647000,0.0324,0.013523,0.002678,0.000431,0.004349
43648000,0.0324,0.013523,0.002678,0.000431,0.005876
43649000,0.0324,0.013523,0.002678,0.000431,0.003291
43650000,0.0324,0.013523,0.002678,0.000431,0.003761
43651000,0.0324,0.013523,0.002678,0.000431,0.004936
43652000,0.0324,0.013523,0.002678,0.000431,0.002468
43653000,0.0324,0.013523,0.002678,0.000431,0.002586
43654000,0.0324,0.013523,0.002678,0.000431,0.002468
43655000,0.0324,0.013523,0.002678,0.000431,0.002586
43656000,0.0324,0.013523,0.002678,0.000431,0.002586
43657000,0.0324,0.013523,0.002678,0.000431,0.002468
43658000,0.0324,0.013523,0.002678,0.000431,0.002586
43659000,0.0324,0.013523,0.002678,0.000431,0.002468
43660000,0.0324,0.013523,0.002678,0.000431,0.002586
43661000,0.0324,0.013523,0.002678,0.000431,0.002586
43662000,0.0324,0.013523,0.002678,0.000431,0.002468
43663000,0.0324,0.013523,0.002678,0.000431,0.002468
43664000,0.0324,0.013523,0.002678,0.000431,0.004231
43665000,0.0324,0.013523,0.002678,0.000431,0.001645
43666000,0.0324,0.013523,0.002678,0.000431,0.001763
43667000,0.0324,0.013523,0.002678,0.000431,0.001763
43668000,0.0324,0.013523,0.002678,0.000431,0.001645
43669000,0.0324,0.013523,0.002678,0.000431,0.003761
43670000,0.0324,0.013523,0.002678,0.000431,0.000940
43671000,0.0324,0.013523,0.002678,0.000431,0.000823
43672000,0.0324,0.013523,0.002678,0.000431,0.204146
43673000,0.0324,0.013523,0.002678,0.000431,0.520415
43674000,0.0324,0.013523,0.002678,0.000431,0.472346
43675000,0.0324,0.013523,0.002678,0.000431,0.131514
43676000,0.0324,0.013523,0.002678,0.000431,0.135392
43677000,0.0324,0.013523,0.002678,0.000431,0.625015
43678000,0.0324,0.013523,0.002678,0.000431,0.239640
43679000,0.0324,0.013523,0.002678,0.000431,0.262323
43680000,0.0324,0.013523,0.002678,0.000431,0.253978
43681000,0.0324,0.013523,0.002678,0.000431,0.144442
43682000,0.0324,0.013523,0.002678,0.000431,0.164657
43683000,0.0324,0.013523,0.002678,0.000431,0.160191
43684000,0.0324,0.013523,0.002678,0.000431,0.422631
43685000,0.0324,0.013523,0.002678,0.000431,0.049597
43686000,0.0324,0.013523,0.002678,0.000431,0.044191
43687000,0.0324,0.013523,0.002678,0.000431,0.034788
43688000,0.0324,0.013523,0.002678,0.000431,0.027854
43689000,0.0324,0.013523,0.002678,0.000431,0.025386
43690000,0.0324,0.013523,0.002678,0.000431,0.022800
43691000,0.0324,0.013523,0.002678,0.000431,0.013986
43692000,0.0324,0.013523,0.002678,0.000431,0.013516
43693000,0.0324,0.013523,0.002678,0.000431,0.014573
43694000,0.0324,0.013523,0.002678,0.000431,0.014456
43695000,0.0324,0.013523,0.002678,0.000431,0.015279
43696000,0.0324,0.013523,0.002678,0.000431,0.007287
43697000,0.0324,0.013523,0.002678,0.000431,0.007992
43698000,0.0324,0.013523,0.002678,0.000431,0.007639
43699000,0.0324,0.013523,0.002678,0.000431,0.007287
43700000,0.0324,0.013523,0.002678,0.000431,0.008227
43701000,0.0324,0.013523,0.002678,0.000431,0.007404
43702000,0.0324,0.013523,0.002678,0.000431,0.008932
43703000,0.0324,0.013523,0.002678,0.000431,0.006347
43704000,0.0324,0.013523,0.002678,0.000431,0.006347
43705000,0.0324,0.013523,0.002678,0.000431,0.005406
43706000,0.0324,0.013523,0.002678,0.000431,0.006347
43707000,0.0324,0.013523,0.002678,0.000431,0.006464
43708000,0.0324,0.013523,0.002678,0.000431,0.005759
43709000,0.0324,0.013523,0.002678,0.000431,0.005524
43710000,0.0324,0.013523,0.002678,0.000431,0.004701
43711000,0.0324,0.013523,0.002678,0.000431,0.006934
43712000,0.0324,0.013523,0.002678,0.000431,0.004701
43713000,0.0324,0.013523,0.002678,0.000431,0.004349
43714000,0.0324,0.013523,0.002678,0.000431,0.004584
43715000,0.0324,0.013523,0.002678,0.000431,0.002586
43716000,0.0324,0.013523,0.002678,0.000431,0.003878
43717000,0.0324,0.013523,0.002678,0.000431,0.001410
43718000,0.0324,0.013523,0.002678,0.000431,0.001880
43719000,0.0324,0.013523,0.002678,0.000431,0.001293
43720000,0.0324,0.013523,0.002678,0.000431,0.001763
43721000,0.0324,0.013523,0.002678,0.000431,0.001645
43722000,0.0324,0.013523,0.002678,0.000431,0.001998
43723000,0.0324,0.013523,0.002678,0.000431,0.336718
43724000,0.0324,0.013523,0.002678,0.000431,0.663799
43725000,0.0324,0.013523,0.002678,0.000431,0.167595
43726000,0.0324,0.013523,0.002678,0.000431,0.133042
43727000,0.0324,0.013523,0.002678,0.000431,0.132572
43728000,0.0324,0.013523,0.002678,0.000431,0.591754
43729000,0.0324,0.013523,0.002678,0.000431,0.224831
43730000,0.0324,0.013523,0.002678,0.000431,0.283596
43731000,0.0324,0.013523,0.002678,0.000431,0.264556
43732000,0.0324,0.013523,0.002678,0.000431,0.142562
43733000,0.0324,0.013523,0.002678,0.000431,0.143384
43734000,0.0324,0.013523,0.002678,0.000431,0.107891
43735000,0.0324,0.013523,0.002678,0.000431,0.414874
43736000,0.0324,0.013523,0.002678,0.000431,0.166302
43737000,0.0324,0.013523,0.002678,0.000431,0.021273
43738000,0.0324,0.013523,0.002678,0.000431,0.015514
43739000,0.0324,0.013523,0.002678,0.000431,0.014809
43740000,0.0324,0.013523,0.002678,0.000431,0.011283
43741000,0.0324,0.013523,0.002678,0.000431,0.010578
43742000,0.0324,0.013523,0.002678,0.000431,0.007522
43743000,0.0324,0.013523,0.002678,0.000431,0.005876
43744000,0.0324,0.013523,0.002678,0.000431,0.004819
43745000,0.0324,0.013523,0.002678,0.000431,0.006699
43746000,0.0324,0.013523,0.002678,0.000431,0.003408
43747000,0.0324,0.013523,0.002678,0.000431,0.008227
43748000,0.0324,0.013523,0.002678,0.000431,0.001645
43749000,0.0324,0.013523,0.002678,0.000431,0.001880
43750000,0.0324,0.013523,0.002678,0.000431,0.001645
43751000,0.0324,0.013523,0.002678,0.000431,0.001880
43752000,0.0324,0.013523,0.002678,0.000431,0.001645
43753000,0.0324,0.013523,0.002678,0.000431,0.001880
43754000,0.0324,0.013523,0.002678,0.000431,0.001645
43755000,0.0324,0.013523,0.002678,0.000431,0.001645
43756000,0.0324,0.013523,0.002678,0.000431,0.001880
43757000,0.0324,0.013523,0.002678,0.000431,0.001645
43758000,0.0324,0.013523,0.002678,0.000431,0.001645
43759000,0.0324,0.013523,0.002678,0.000431,0.001880
43760000,0.0324,0.013523,0.002678,0.000431,0.001880
43761000,0.0324,0.013523,0.002678,0.000431,0.001645
43762000,0.0324,0.013523,0.002678,0.000431,0.001645
43763000,0.0324,0.013523,0.002678,0.000431,0.001880
43764000,0.0324,0.013523,0.002678,0.000431,0.001880
43765000,0.0324,0.013523,0.002678,0.000431,0.001410
43766000,0.0324,0.013523,0.002678,0.000431,0.001880
43767000,0.0324,0.013523,0.002678,0.000431,0.001880
43768000,0.0324,0.013523,0.002678,0.000431,0.001880
43769000,0.0324,0.013523,0.002678,0.000431,0.001410
43770000,0.0324,0.013523,0.002678,0.000431,0.001880
43771000,0.0324,0.013523,0.002678,0.000431,0.001880
43772000,0.0324,0.013523,0.002678,0.000431,0.001410
43773000,0.0324,0.013523,0.002678,0.000431,0.001880
43774000,0.0324,0.013523,0.002678,0.000431,0.001880
43775000,0.0324,0.013523,0.002678,0.000431,0.001880
43776000,0.0324,0.013523,0.002678,0.000431,0.001410
43777000,0.0324,0.013523,0.002678,0.000431,0.001880
43778000,0.0324,0.013523,0.002678,0.000431,0.001880
43779000,0.0324,0.013523,0.002678,0.000431,0.001645
43780000,0.0324,0.013523,0.002678,0.000431,0.001645
43781000,0.0324,0.013523,0.002678,0.000431,0.001880
43782000,0.0324,0.013523,0.002678,0.000431,0.001645
43783000,0.0324,0.013523,0.002678,0.000431,0.001880
43784000,0.0324,0.013523,0.002678,0.000431,0.001645
43785000,0.0324,0.013523,0.002678,0.000431,0.001880
43786000,0.0324,0.013523,0.002678,0.000431,0.001645
43787000,0.0324,0.013523,0.002678,0.000431,0.001645
43788000,0.0324,0.013523,0.002678,0.000431,0.001880
43789000,0.0324,0.013523,0.002678,0.000431,0.001645
43790000,0.0324,0.013523,0.002678,0.000431,0.001880
43791000,0.0324,0.013523,0.002678,0.000431,0.001645
43792000,0.0324,0.013523,0.002678,0.000431,0.001880
43793000,0.0324,0.013523,0.002678,0.000431,0.001645
43794000,0.0324,0.013523,0.002678,0.000431,0.001645
43795000,0.0324,0.013523,0.002678,0.000431,0.001880
43796000,0.0324,0.013523,0.002678,0.000431,0.001645
43797000,0.0324,0.013523,0.002678,0.000431,0.001880
43798000,0.0324,0.013523,0.002678,0.000431,0.001645
43799000,0.0324,0.013523,0.002678,0.000431,0.001880
43800000,0.0324,0.013523,0.002678,0.000431,0.001645
43801000,0.0324,0.013523,0.002678,0.000431,0.001645
43802000,0.0324,0.013523,0.002678,0.000431,0.001880
43803000,0.0324,0.013523,0.002678,0.000431,0.001880
43804000,0.0324,0.013523,0.002678,0.000431,0.001410
43805000,0.0324,0.013523,0.002678,0.000431,0.001880
43806000,0.0324,0.013523,0.002678,0.000431,0.001880
43807000,0.0324,0.013523,0.002678,0.000431,0.001880
43808000,0.0324,0.013523,0.002678,0.000431,0.001410
43809000,0.0324,0.013523,0.002678,0.000431,0.001880
43810000,0.0324,0.013523,0.002678,0.000431,0.001880
43811000,0.0324,0.013523,0.002678,0.000431,0.001645
43812000,0.0324,0.013523,0.002678,0.000431,0.001645
43813000,0.0324,0.013523,0.002678,0.000431,0.001880
43814000,0.0324,0.013523,0.002678,0.000431,0.001880
43815000,0.0324,0.013523,0.002678,0.000431,0.001410
43816000,0.0324,0.013523,0.002678,0.000431,0.001880
43817000,0.0324,0.013523,0.002678,0.000431,0.001880
43818000,0.0324,0.013523,0.002678,0.000431,0.001645
43819000,0.0324,0.013523,0.002678,0.000431,0.001645
43820000,0.0324,0.013523,0.002678,0.000431,0.001880
43821000,0.0324,0.013523,0.002678,0.000431,0.001880
43822000,0.0324,0.013523,0.002678,0.000431,0.001645
43823000,0.0324,0.013523,0.002678,0.000431,0.001645
43824000,0.0324,0.013523,0.002678,0.000431,0.001880
43825000,0.0324,0.013523,0.002678,0.000431,0.001645
43826000,0.0324,0.013523,0.002678,0.000431,0.001763
43827000,0.0324,0.013523,0.002678,0.000431,0.001175
43828000,0.0324,0.013523,0.002678,0.000431,0.000940
43829000,0.0324,0.013523,0.002678,0.000431,0.000823
43830000,0.0324,0.013523,0.002678,0.000431,0.000823
43831000,0.0324,0.013523,0.002678,0.000431,0.000940
43832000,0.0324,0.013523,0.002678,0.000431,0.000823
43833000,0.0324,0.013523,0.002678,0.000431,0.000823
43834000,0.0324,0.013523,0.002678,0.000431,0.000940
43835000,0.0324,0.013523,0.002678,0.000431,0.000940
43836000,0.0324,0.013523,0.002678,0.000431,0.000940
43837000,0.0324,0.013523,0.002678,0.000431,0.000705
43838000,0.0324,0.013523,0.002678,0.000431,0.000940
43839000,0.0324,0.013523,0.002678,0.000431,0.000940
43840000,0.0324,0.013523,0.002678,0.000431,0.000823
43841000,0.0324,0.013523,0.002678,0.000431,0.000823
43842000,0.0324,0.013523,0.002678,0.000431,0.000940
43843000,0.0324,0.013523,0.002678,0.000431,0.000940
43844000,0.0324,0.013523,0.002678,0.000431,0.000823
43845000,0.0324,0.013523,0.002678,0.000431,0.000823
43846000,0.0324,0.013523,0.002678,0.000431,0.000940
43847000,0.0324,0.013523,0.002678,0.000431,0.000823
43848000,0.0324,0.013523,0.002678,0.000431,0.000940
43849000,0.0324,0.013523,0.002678,0.000431,0.000823
43850000,0.0324,0.013523,0.002678,0.000431,0.000940
43851000,0.0324,0.013523,0.002678,0.000431,0.000823
43852000,0.0324,0.013523,0.002678,0.000431,0.000823
43853000,0.0324,0.013523,0.002678,0.000431,0.000940
43854000,0.0324,0.013523,0.002678,0.000431,0.000940
43855000,0.0324,0.013523,0.002678,0.000431,0.000823
43856000,0.0324,0.013523,0.002678,0.000431,0.000823
43857000,0.0324,0.013523,0.002678,0.000431,0.000940
43858000,0.0324,0.013523,0.002678,0.000431,0.000940
43859000,0.0324,0.013523,0.002678,0.000431,0.000705
43860000,0.0324,0.013523,0.002678,0.000431,0.000940
43861000,0.0324,0.013523,0.002678,0.000431,0.000940
43862000,0.0324,0.013523,0.002678,0.000431,0.000940
43863000,0.0324,0.013523,0.002678,0.000431,0.000823
43864000,0.0324,0.013523,0.002678,0.000431,0.000823
43865000,0.0324,0.013523,0.002678,0.000431,0.000940
43866000,0.0324,0.013523,0.002678,0.000431,0.000823
43867000,0.0324,0.013523,0.002678,0.000431,0.000940
43868000,0.0324,0.013523,0.002678,0.000431,0.000823
43869000,0.0324,0.013523,0.002678,0.000431,0.000940
43870000,0.0324,0.013523,0.002678,0.000431,0.000823
43871000,0.0324,0.013523,0.002678,0.000431,0.000823
43872000,0.0324,0.013523,0.002678,0.000431,0.000940
43873000,0.0324,0.013523,0.002678,0.000431,0.001880
43874000,0.0324,0.013523,0.002678,0.000431,0.286181
43875000,0.0324,0.013523,0.002678,0.000431,0.630069
43876000,0.0324,0.013523,0.002678,0.000431,0.234469
43877000,0.0324,0.013523,0.002678,0.000431,0.133042
43878000,0.0324,0.013523,0.002678,0.000431,0.132572
43879000,0.0324,0.013523,0.002678,0.000431,0.586936
43880000,0.0324,0.013523,0.002678,0.000431,0.223068
43881000,0.0324,0.013523,0.002678,0.000431,0.282655
43882000,0.0324,0.013523,0.002678,0.000431,0.280070
43883000,0.0324,0.013523,0.002678,0.000431,0.143619
43884000,0.0324,0.013523,0.002678,0.000431,0.141034
43885000,0.0324,0.013523,0.002678,0.000431,0.099546
43886000,0.0324,0.013523,0.002678,0.000431,0.412406
43887000,0.0324,0.013523,0.002678,0.000431,0.159603
43888000,0.0324,0.013523,0.002678,0.000431,0.017512
43889000,0.0324,0.013523,0.002678,0.000431,0.015161
43890000,0.0324,0.013523,0.002678,0.000431,0.010930
43891000,0.0324,0.013523,0.002678,0.000431,0.006229
43892000,0.0324,0.013523,0.002678,0.000431,0.005171
43893000,0.0324,0.013523,0.002678,0.000431,0.005524
43894000,0.0324,0.013523,0.002678,0.000431,0.007639
43895000,0.0324,0.013523,0.002678,0.000431,0.003408
43896000,0.0324,0.013523,0.002678,0.000431,0.005759
43897000,0.0324,0.013523,0.002678,0.000431,0.003056
43898000,0.0324,0.013523,0.002678,0.000431,0.004584
43899000,0.0324,0.013523,0.002678,0.000431,0.002233
43900000,0.0324,0.013523,0.002678,0.000431,0.001880
43901000,0.0324,0.013523,0.002678,0.000431,0.004349
43902000,0.0324,0.013523,0.002678,0.000431,0.000940
43903000,0.0324,0.013523,0.002678,0.000431,0.000705
43904000,0.0324,0.013523,0.002678,0.000431,0.000940
43905000,0.0324,0.013523,0.002678,0.000431,0.000940
43906000,0.0324,0.013523,0.002678,0.000431,0.000705
43907000,0.0324,0.013523,0.002678,0.000431,0.000940
43908000,0.0324,0.013523,0.002678,0.000431,0.000705
43909000,0.0324,0.013523,0.002678,0.000431,0.000940
43910000,0.0324,0.013523,0.002678,0.000431,0.000823
43911000,0.0324,0.013523,0.002678,0.000431,0.000823
43912000,0.0324,0.013523,0.002678,0.000431,0.000823
43913000,0.0324,0.013523,0.002678,0.000431,0.000823
43914000,0.0324,0.013523,0.002678,0.000431,0.000940
43915000,0.0324,0.013523,0.002678,0.000431,0.000705
43916000,0.0324,0.013523,0.002678,0.000431,0.000940
43917000,0.0324,0.013523,0.002678,0.000431,0.000823
43918000,0.0324,0.013523,0.002678,0.000431,0.000705
43919000,0.0324,0.013523,0.002678,0.000431,0.000940
43920000,0.0324,0.013523,0.002678,0.000431,0.000823
43921000,0.0324,0.013523,0.002678,0.000431,0.000823
43922000,0.0324,0.013523,0.002678,0.000431,0.000823
43923000,0.0324,0.013523,0.002678,0.000431,0.000823
43924000,0.0324,0.013523,0.002678,0.000431,0.000823
43925000,0.0324,0.013523,0.002678,0.000431,0.000940
43926000,0.0324,0.013523,0.002678,0.000431,0.000823
43927000,0.0324,0.013523,0.002678,0.000431,0.000823
43928000,0.0324,0.013523,0.002678,0.000431,0.000705
43929000,0.0324,0.013523,0.002678,0.000431,0.000940
43930000,0.0324,0.013523,0.002678,0.000431,0.000940
43931000,0.0324,0.013523,0.002678,0.000431,0.000705
43932000,0.0324,0.013523,0.002678,0.000431,0.000940
43933000,0.0324,0.013523,0.002678,0.000431,0.000705
43934000,0.0324,0.013523,0.002678,0.000431,0.000940
43935000,0.0324,0.013523,0.002678,0.000431,0.000823
43936000,0.0324,0.013523,0.002678,0.000431,0.000823
43937000,0.0324,0.013523,0.002678,0.000431,0.000940
43938000,0.0324,0.013523,0.002678,0.000431,0.000705
43939000,0.0324,0.013523,0.002678,0.000431,0.000940
43940000,0.0324,0.013523,0.002678,0.000431,0.000823
43941000,0.0324,0.013523,0.002678,0.000431,0.000823
43942000,0.0324,0.013523,0.002678,0.000431,0.000823
43943000,0.0324,0.013523,0.002678,0.000431,0.000823
43944000,0.0324,0.013523,0.002678,0.000431,0.000823
43945000,0.0324,0.013523,0.002678,0.000431,0.000823
43946000,0.0324,0.013523,0.002678,0.000431,0.000940
43947000,0.0324,0.013523,0.002678,0.000431,0.096256
43948000,0.0324,0.013523,0.002678,0.000431,0.474696
43949000,0.0324,0.013523,0.002678,0.000431,0.537691
43950000,0.0324,0.013523,0.002678,0.000431,0.132572
43951000,0.0324,0.013523,0.002678,0.000431,0.133512
43952000,0.0324,0.013523,0.002678,0.000431,0.658981
43953000,0.0324,0.013523,0.002678,0.000431,0.278307
43954000,0.0324,0.013523,0.002678,0.000431,0.235644
43955000,0.0324,0.013523,0.002678,0.000431,0.239757
43956000,0.0324,0.013523,0.002678,0.000431,0.135628
43957000,0.0324,0.013523,0.002678,0.000431,0.152199
43958000,0.0324,0.013523,0.002678,0.000431,0.102602
43959000,0.0324,0.013523,0.002678,0.000431,0.427568
43960000,0.0324,0.013523,0.002678,0.000431,0.171944
43961000,0.0324,0.013523,0.002678,0.000431,0.055708
43962000,0.0324,0.013523,0.002678,0.000431,0.048892
43963000,0.0324,0.013523,0.002678,0.000431,0.047951
43964000,0.0324,0.013523,0.002678,0.000431,0.034671
43965000,0.0324,0.013523,0.002678,0.000431,0.031498
43966000,0.0324,0.013523,0.002678,0.000431,0.031380
43967000,0.0324,0.013523,0.002678,0.000431,0.025856
43968000,0.0324,0.013523,0.002678,0.000431,0.021508
43969000,0.0324,0.013523,0.002678,0.000431,0.023858
43970000,0.0324,0.013523,0.002678,0.000431,0.016571
43971000,0.0324,0.013523,0.002678,0.000431,0.016454
43972000,0.0324,0.013523,0.002678,0.000431,0.017394
43973000,0.0324,0.013523,0.002678,0.000431,0.014691
43974000,0.0324,0.013523,0.002678,0.000431,0.009872
43975000,0.0324,0.013523,0.002678,0.000431,0.012105
43976000,0.0324,0.013523,0.002678,0.000431,0.008697
43977000,0.0324,0.013523,0.002678,0.000431,0.009285
43978000,0.0324,0.013523,0.002678,0.000431,0.011283
43979000,0.0324,0.013523,0.002678,0.000431,0.007757
43980000,0.0324,0.013523,0.002678,0.000431,0.005171
43981000,0.0324,0.013523,0.002678,0.000431,0.005171
43982000,0.0324,0.013523,0.002678,0.000431,0.005054
43983000,0.0324,0.013523,0.002678,0.000431,0.005289
43984000,0.0324,0.013523,0.002678,0.000431,0.006464
43985000,0.0324,0.013523,0.002678,0.000431,0.004231
43986000,0.0324,0.013523,0.002678,0.000431,0.004113
43987000,0.0324,0.013523,0.002678,0.000431,0.005524
43988000,0.0324,0.013523,0.002678,0.000431,0.006699
43989000,0.0324,0.013523,0.002678,0.000431,0.002233
43990000,0.0324,0.013523,0.002678,0.000431,0.002703
43991000,0.0324,0.013523,0.002678,0.000431,0.002468
43992000,0.0324,0.013523,0.002678,0.000431,0.002468
43993000,0.0324,0.013523,0.002678,0.000431,0.002586
43994000,0.0324,0.013523,0.002678,0.000431,0.002468
43995000,0.0324,0.013523,0.002678,0.000431,0.002586
43996000,0.0324,0.013523,0.002678,0.000431,0.002351
43997000,0.0324,0.013523,0.002678,0.000431,0.002703
43998000,0.0324,0.013523,0.002678,0.000431,0.002468
43999000,0.0324,0.013523,0.002678,0.000431,0.002351
