Cycle,Area(mm^2),PeakDynamic(W),SubthresholdLeakage(W),GateLeakage(W),RunTimeDynamic(W)
9000000,0.0324,0.013523,0.002678,0.000431,0.004701
9001000,0.0324,0.013523,0.002678,0.000431,0.004701
9002000,0.0324,0.013523,0.002678,0.000431,0.004701
9003000,0.0324,0.013523,0.002678,0.000431,0.004466
9004000,0.0324,0.013523,0.002678,0.000431,0.012223
9005000,0.0324,0.013523,0.002678,0.000431,0.004701
9006000,0.0324,0.013523,0.002678,0.000431,0.004701
9007000,0.0324,0.013523,0.002678,0.000431,0.004701
9008000,0.0324,0.013523,0.002678,0.000431,0.004701
9009000,0.0324,0.013523,0.002678,0.000431,0.004701
9010000,0.0324,0.013523,0.002678,0.000431,0.049832
9011000,0.0324,0.013523,0.002678,0.000431,0.004701
9012000,0.0324,0.013523,0.002678,0.000431,0.004701
9013000,0.0324,0.013523,0.002678,0.000431,0.013398
9014000,0.0324,0.013523,0.002678,0.000431,0.004701
9015000,0.0324,0.013523,0.002678,0.000431,0.004701
9016000,0.0324,0.013523,0.002678,0.000431,0.008462
9017000,0.0324,0.013523,0.002678,0.000431,0.008462
9018000,0.0324,0.013523,0.002678,0.000431,0.004701
9019000,0.0324,0.013523,0.002678,0.000431,0.012223
9020000,0.0324,0.013523,0.002678,0.000431,0.004701
9021000,0.0324,0.013523,0.002678,0.000431,0.004701
9022000,0.0324,0.013523,0.002678,0.000431,0.058529
9023000,0.0324,0.013523,0.002678,0.000431,0.049832
9024000,0.0324,0.013523,0.002678,0.000431,0.004701
9025000,0.0324,0.013523,0.002678,0.000431,0.004701
9026000,0.0324,0.013523,0.002678,0.000431,0.019627
9027000,0.0324,0.013523,0.002678,0.000431,0.007757
9028000,0.0324,0.013523,0.002678,0.000431,0.011400
9029000,0.0324,0.013523,0.002678,0.000431,0.047246
9030000,0.0324,0.013523,0.002678,0.000431,0.012223
9031000,0.0324,0.013523,0.002678,0.000431,0.004466
9032000,0.0324,0.013523,0.002678,0.000431,0.069812
9033000,0.0324,0.013523,0.002678,0.000431,0.021860
9034000,0.0324,0.013523,0.002678,0.000431,0.004701
9035000,0.0324,0.013523,0.002678,0.000431,0.004701
9036000,0.0324,0.013523,0.002678,0.000431,0.011048
9037000,0.0324,0.013523,0.002678,0.000431,0.034788
9038000,0.0324,0.013523,0.002678,0.000431,0.004701
9039000,0.0324,0.013523,0.002678,0.000431,0.019745
9040000,0.0324,0.013523,0.002678,0.000431,0.004701
9041000,0.0324,0.013523,0.002678,0.000431,0.019040
9042000,0.0324,0.013523,0.002678,0.000431,0.039254
9043000,0.0324,0.013523,0.002678,0.000431,0.019745
9044000,0.0324,0.013523,0.002678,0.000431,0.008462
9045000,0.0324,0.013523,0.002678,0.000431,0.004701
9046000,0.0324,0.013523,0.002678,0.000431,0.004701
9047000,0.0324,0.013523,0.002678,0.000431,0.004701
9048000,0.0324,0.013523,0.002678,0.000431,0.004701
9049000,0.0324,0.013523,0.002678,0.000431,0.031027
9050000,0.0324,0.013523,0.002678,0.000431,0.023506
9051000,0.0324,0.013523,0.002678,0.000431,0.011400
9052000,0.0324,0.013523,0.002678,0.000431,0.035611
9053000,0.0324,0.013523,0.002678,0.000431,0.004701
9054000,0.0324,0.013523,0.002678,0.000431,0.012223
9055000,0.0324,0.013523,0.002678,0.000431,0.004701
9056000,0.0324,0.013523,0.002678,0.000431,0.033613
9057000,0.0324,0.013523,0.002678,0.000431,0.004701
9058000,0.0324,0.013523,0.002678,0.000431,0.004701
9059000,0.0324,0.013523,0.002678,0.000431,0.004701
9060000,0.0324,0.013523,0.002678,0.000431,0.004701
9061000,0.0324,0.013523,0.002678,0.000431,0.012223
9062000,0.0324,0.013523,0.002678,0.000431,0.012223
9063000,0.0324,0.013523,0.002678,0.000431,0.071692
9064000,0.0324,0.013523,0.002678,0.000431,0.064170
9065000,0.0324,0.013523,0.002678,0.000431,0.012223
9066000,0.0324,0.013523,0.002678,0.000431,0.004584
9067000,0.0324,0.013523,0.002678,0.000431,0.027149
9068000,0.0324,0.013523,0.002678,0.000431,0.004701
9069000,0.0324,0.013523,0.002678,0.000431,0.008462
9070000,0.0324,0.013523,0.002678,0.000431,0.063113
9071000,0.0324,0.013523,0.002678,0.000431,0.025269
9072000,0.0324,0.013523,0.002678,0.000431,0.004701
9073000,0.0324,0.013523,0.002678,0.000431,0.004466
9074000,0.0324,0.013523,0.002678,0.000431,0.004701
9075000,0.0324,0.013523,0.002678,0.000431,0.004701
9076000,0.0324,0.013523,0.002678,0.000431,0.004701
9077000,0.0324,0.013523,0.002678,0.000431,0.019745
9078000,0.0324,0.013523,0.002678,0.000431,0.004701
9079000,0.0324,0.013523,0.002678,0.000431,0.004701
9080000,0.0324,0.013523,0.002678,0.000431,0.004701
9081000,0.0324,0.013523,0.002678,0.000431,0.004701
9082000,0.0324,0.013523,0.002678,0.000431,0.004701
9083000,0.0324,0.013523,0.002678,0.000431,0.055826
9084000,0.0324,0.013523,0.002678,0.000431,0.021273
9085000,0.0324,0.013523,0.002678,0.000431,0.004701
9086000,0.0324,0.013523,0.002678,0.000431,0.012223
9087000,0.0324,0.013523,0.002678,0.000431,0.012223
9088000,0.0324,0.013523,0.002678,0.000431,0.004701
9089000,0.0324,0.013523,0.002678,0.000431,0.004701
9090000,0.0324,0.013523,0.002678,0.000431,0.094963
9091000,0.0324,0.013523,0.002678,0.000431,0.004701
9092000,0.0324,0.013523,0.002678,0.000431,0.004701
9093000,0.0324,0.013523,0.002678,0.000431,0.012223
9094000,0.0324,0.013523,0.002678,0.000431,0.004701
9095000,0.0324,0.013523,0.002678,0.000431,0.004701
9096000,0.0324,0.013523,0.002678,0.000431,0.004701
9097000,0.0324,0.013523,0.002678,0.000431,0.004701
9098000,0.0324,0.013523,0.002678,0.000431,0.004701
9099000,0.0324,0.013523,0.002678,0.000431,0.023506
9100000,0.0324,0.013523,0.002678,0.000431,0.008462
9101000,0.0324,0.013523,0.002678,0.000431,0.004701
9102000,0.0324,0.013523,0.002678,0.000431,0.035729
9103000,0.0324,0.013523,0.002678,0.000431,0.034671
9104000,0.0324,0.013523,0.002678,0.000431,0.004466
9105000,0.0324,0.013523,0.002678,0.000431,0.004584
9106000,0.0324,0.013523,0.002678,0.000431,0.033496
9107000,0.0324,0.013523,0.002678,0.000431,0.004584
9108000,0.0324,0.013523,0.002678,0.000431,0.004701
9109000,0.0324,0.013523,0.002678,0.000431,0.108831
9110000,0.0324,0.013523,0.002678,0.000431,0.004701
9111000,0.0324,0.013523,0.002678,0.000431,0.004701
9112000,0.0324,0.013523,0.002678,0.000431,0.054886
9113000,0.0324,0.013523,0.002678,0.000431,0.014456
9114000,0.0324,0.013523,0.002678,0.000431,0.004701
9115000,0.0324,0.013523,0.002678,0.000431,0.036904
9116000,0.0324,0.013523,0.002678,0.000431,0.010107
9117000,0.0324,0.013523,0.002678,0.000431,0.004701
9118000,0.0324,0.013523,0.002678,0.000431,0.004701
9119000,0.0324,0.013523,0.002678,0.000431,0.004466
9120000,0.0324,0.013523,0.002678,0.000431,0.004701
9121000,0.0324,0.013523,0.002678,0.000431,0.004701
9122000,0.0324,0.013523,0.002678,0.000431,0.049832
9123000,0.0324,0.013523,0.002678,0.000431,0.004701
9124000,0.0324,0.013523,0.002678,0.000431,0.004701
9125000,0.0324,0.013523,0.002678,0.000431,0.049832
9126000,0.0324,0.013523,0.002678,0.000431,0.004701
9127000,0.0324,0.013523,0.002678,0.000431,0.004701
9128000,0.0324,0.013523,0.002678,0.000431,0.102485
9129000,0.0324,0.013523,0.002678,0.000431,0.019510
9130000,0.0324,0.013523,0.002678,0.000431,0.012223
9131000,0.0324,0.013523,0.002678,0.000431,0.013163
9132000,0.0324,0.013523,0.002678,0.000431,0.018805
9133000,0.0324,0.013523,0.002678,0.000431,0.004701
9134000,0.0324,0.013523,0.002678,0.000431,0.034788
9135000,0.0324,0.013523,0.002678,0.000431,0.042545
9136000,0.0324,0.013523,0.002678,0.000431,0.004701
9137000,0.0324,0.013523,0.002678,0.000431,0.004701
9138000,0.0324,0.013523,0.002678,0.000431,0.027267
9139000,0.0324,0.013523,0.002678,0.000431,0.004701
9140000,0.0324,0.013523,0.002678,0.000431,0.013633
9141000,0.0324,0.013523,0.002678,0.000431,0.010813
9142000,0.0324,0.013523,0.002678,0.000431,0.012223
9143000,0.0324,0.013523,0.002678,0.000431,0.004701
9144000,0.0324,0.013523,0.002678,0.000431,0.012105
9145000,0.0324,0.013523,0.002678,0.000431,0.004584
9146000,0.0324,0.013523,0.002678,0.000431,0.004701
9147000,0.0324,0.013523,0.002678,0.000431,0.004701
9148000,0.0324,0.013523,0.002678,0.000431,0.022213
9149000,0.0324,0.013523,0.002678,0.000431,0.024798
9150000,0.0324,0.013523,0.002678,0.000431,0.019745
9151000,0.0324,0.013523,0.002678,0.000431,0.012223
9152000,0.0324,0.013523,0.002678,0.000431,0.004701
9153000,0.0324,0.013523,0.002678,0.000431,0.047951
9154000,0.0324,0.013523,0.002678,0.000431,0.006347
9155000,0.0324,0.013523,0.002678,0.000431,0.087323
9156000,0.0324,0.013523,0.002678,0.000431,0.004584
9157000,0.0324,0.013523,0.002678,0.000431,0.004701
9158000,0.0324,0.013523,0.002678,0.000431,0.004701
9159000,0.0324,0.013523,0.002678,0.000431,0.004466
9160000,0.0324,0.013523,0.002678,0.000431,0.004701
9161000,0.0324,0.013523,0.002678,0.000431,0.008462
9162000,0.0324,0.013523,0.002678,0.000431,0.008462
9163000,0.0324,0.013523,0.002678,0.000431,0.004701
9164000,0.0324,0.013523,0.002678,0.000431,0.019745
9165000,0.0324,0.013523,0.002678,0.000431,0.004701
9166000,0.0324,0.013523,0.002678,0.000431,0.019745
9167000,0.0324,0.013523,0.002678,0.000431,0.004701
9168000,0.0324,0.013523,0.002678,0.000431,0.044191
9169000,0.0324,0.013523,0.002678,0.000431,0.017864
9170000,0.0324,0.013523,0.002678,0.000431,0.034788
9171000,0.0324,0.013523,0.002678,0.000431,0.004701
9172000,0.0324,0.013523,0.002678,0.000431,0.004701
9173000,0.0324,0.013523,0.002678,0.000431,0.019745
9174000,0.0324,0.013523,0.002678,0.000431,0.004701
9175000,0.0324,0.013523,0.002678,0.000431,0.042310
9176000,0.0324,0.013523,0.002678,0.000431,0.014573
9177000,0.0324,0.013523,0.002678,0.000431,0.024916
9178000,0.0324,0.013523,0.002678,0.000431,0.004701
9179000,0.0324,0.013523,0.002678,0.000431,0.004701
9180000,0.0324,0.013523,0.002678,0.000431,0.147380
9181000,0.0324,0.013523,0.002678,0.000431,0.017864
9182000,0.0324,0.013523,0.002678,0.000431,0.014103
9183000,0.0324,0.013523,0.002678,0.000431,0.004701
9184000,0.0324,0.013523,0.002678,0.000431,0.004584
9185000,0.0324,0.013523,0.002678,0.000431,0.020802
9186000,0.0324,0.013523,0.002678,0.000431,0.047716
9187000,0.0324,0.013523,0.002678,0.000431,0.014338
9188000,0.0324,0.013523,0.002678,0.000431,0.019745
9189000,0.0324,0.013523,0.002678,0.000431,0.014691
9190000,0.0324,0.013523,0.002678,0.000431,0.021038
9191000,0.0324,0.013523,0.002678,0.000431,0.015984
9192000,0.0324,0.013523,0.002678,0.000431,0.004701
9193000,0.0324,0.013523,0.002678,0.000431,0.012105
9194000,0.0324,0.013523,0.002678,0.000431,0.012105
9195000,0.0324,0.013523,0.002678,0.000431,0.042193
9196000,0.0324,0.013523,0.002678,0.000431,0.004584
9197000,0.0324,0.013523,0.002678,0.000431,0.072397
9198000,0.0324,0.013523,0.002678,0.000431,0.019745
9199000,0.0324,0.013523,0.002678,0.000431,0.004701
9200000,0.0324,0.013523,0.002678,0.000431,0.004701
9201000,0.0324,0.013523,0.002678,0.000431,0.004701
9202000,0.0324,0.013523,0.002678,0.000431,0.004701
9203000,0.0324,0.013523,0.002678,0.000431,0.012223
9204000,0.0324,0.013523,0.002678,0.000431,0.015984
9205000,0.0324,0.013523,0.002678,0.000431,0.012223
9206000,0.0324,0.013523,0.002678,0.000431,0.015984
9207000,0.0324,0.013523,0.002678,0.000431,0.004701
9208000,0.0324,0.013523,0.002678,0.000431,0.004701
9209000,0.0324,0.013523,0.002678,0.000431,0.004701
9210000,0.0324,0.013523,0.002678,0.000431,0.012223
9211000,0.0324,0.013523,0.002678,0.000431,0.019745
9212000,0.0324,0.013523,0.002678,0.000431,0.012223
9213000,0.0324,0.013523,0.002678,0.000431,0.004701
9214000,0.0324,0.013523,0.002678,0.000431,0.004701
9215000,0.0324,0.013523,0.002678,0.000431,0.004466
9216000,0.0324,0.013523,0.002678,0.000431,0.019745
9217000,0.0324,0.013523,0.002678,0.000431,0.012223
9218000,0.0324,0.013523,0.002678,0.000431,0.023506
9219000,0.0324,0.013523,0.002678,0.000431,0.026444
9220000,0.0324,0.013523,0.002678,0.000431,0.016807
9221000,0.0324,0.013523,0.002678,0.000431,0.004701
9222000,0.0324,0.013523,0.002678,0.000431,0.007287
9223000,0.0324,0.013523,0.002678,0.000431,0.054768
9224000,0.0324,0.013523,0.002678,0.000431,0.004701
9225000,0.0324,0.013523,0.002678,0.000431,0.034553
9226000,0.0324,0.013523,0.002678,0.000431,0.012223
9227000,0.0324,0.013523,0.002678,0.000431,0.023506
9228000,0.0324,0.013523,0.002678,0.000431,0.015984
9229000,0.0324,0.013523,0.002678,0.000431,0.004701
9230000,0.0324,0.013523,0.002678,0.000431,0.004701
9231000,0.0324,0.013523,0.002678,0.000431,0.004701
9232000,0.0324,0.013523,0.002678,0.000431,0.004701
9233000,0.0324,0.013523,0.002678,0.000431,0.004584
9234000,0.0324,0.013523,0.002678,0.000431,0.115883
9235000,0.0324,0.013523,0.002678,0.000431,0.024798
9236000,0.0324,0.013523,0.002678,0.000431,0.053358
9237000,0.0324,0.013523,0.002678,0.000431,0.004701
9238000,0.0324,0.013523,0.002678,0.000431,0.139623
9239000,0.0324,0.013523,0.002678,0.000431,0.004701
9240000,0.0324,0.013523,0.002678,0.000431,0.004701
9241000,0.0324,0.013523,0.002678,0.000431,0.034788
9242000,0.0324,0.013523,0.002678,0.000431,0.004701
9243000,0.0324,0.013523,0.002678,0.000431,0.004701
9244000,0.0324,0.013523,0.002678,0.000431,0.004701
9245000,0.0324,0.013523,0.002678,0.000431,0.012223
9246000,0.0324,0.013523,0.002678,0.000431,0.019745
9247000,0.0324,0.013523,0.002678,0.000431,0.012223
9248000,0.0324,0.013523,0.002678,0.000431,0.053240
9249000,0.0324,0.013523,0.002678,0.000431,0.134452
9250000,0.0324,0.013523,0.002678,0.000431,0.006699
9251000,0.0324,0.013523,0.002678,0.000431,0.004701
9252000,0.0324,0.013523,0.002678,0.000431,0.012223
9253000,0.0324,0.013523,0.002678,0.000431,0.012223
9254000,0.0324,0.013523,0.002678,0.000431,0.012223
9255000,0.0324,0.013523,0.002678,0.000431,0.049832
9256000,0.0324,0.013523,0.002678,0.000431,0.004701
9257000,0.0324,0.013523,0.002678,0.000431,0.004701
9258000,0.0324,0.013523,0.002678,0.000431,0.004701
9259000,0.0324,0.013523,0.002678,0.000431,0.027267
9260000,0.0324,0.013523,0.002678,0.000431,0.045366
9261000,0.0324,0.013523,0.002678,0.000431,0.068872
9262000,0.0324,0.013523,0.002678,0.000431,0.034788
9263000,0.0324,0.013523,0.002678,0.000431,0.004701
9264000,0.0324,0.013523,0.002678,0.000431,0.004701
9265000,0.0324,0.013523,0.002678,0.000431,0.023506
9266000,0.0324,0.013523,0.002678,0.000431,0.030792
9267000,0.0324,0.013523,0.002678,0.000431,0.087441
9268000,0.0324,0.013523,0.002678,0.000431,0.004701
9269000,0.0324,0.013523,0.002678,0.000431,0.004701
9270000,0.0324,0.013523,0.002678,0.000431,0.004701
9271000,0.0324,0.013523,0.002678,0.000431,0.064876
9272000,0.0324,0.013523,0.002678,0.000431,0.004701
9273000,0.0324,0.013523,0.002678,0.000431,0.004701
9274000,0.0324,0.013523,0.002678,0.000431,0.019745
9275000,0.0324,0.013523,0.002678,0.000431,0.004701
9276000,0.0324,0.013523,0.002678,0.000431,0.004701
9277000,0.0324,0.013523,0.002678,0.000431,0.020450
9278000,0.0324,0.013523,0.002678,0.000431,0.041605
9279000,0.0324,0.013523,0.002678,0.000431,0.004466
9280000,0.0324,0.013523,0.002678,0.000431,0.046071
9281000,0.0324,0.013523,0.002678,0.000431,0.068636
9282000,0.0324,0.013523,0.002678,0.000431,0.004701
9283000,0.0324,0.013523,0.002678,0.000431,0.004701
9284000,0.0324,0.013523,0.002678,0.000431,0.004584
9285000,0.0324,0.013523,0.002678,0.000431,0.004584
9286000,0.0324,0.013523,0.002678,0.000431,0.004701
9287000,0.0324,0.013523,0.002678,0.000431,0.072632
9288000,0.0324,0.013523,0.002678,0.000431,0.034788
9289000,0.0324,0.013523,0.002678,0.000431,0.004701
9290000,0.0324,0.013523,0.002678,0.000431,0.004701
9291000,0.0324,0.013523,0.002678,0.000431,0.004701
9292000,0.0324,0.013523,0.002678,0.000431,0.004701
9293000,0.0324,0.013523,0.002678,0.000431,0.006934
9294000,0.0324,0.013523,0.002678,0.000431,0.137626
9295000,0.0324,0.013523,0.002678,0.000431,0.012223
9296000,0.0324,0.013523,0.002678,0.000431,0.019745
9297000,0.0324,0.013523,0.002678,0.000431,0.004701
9298000,0.0324,0.013523,0.002678,0.000431,0.004701
9299000,0.0324,0.013523,0.002678,0.000431,0.004701
9300000,0.0324,0.013523,0.002678,0.000431,0.048069
9301000,0.0324,0.013523,0.002678,0.000431,0.073925
9302000,0.0324,0.013523,0.002678,0.000431,0.012223
9303000,0.0324,0.013523,0.002678,0.000431,0.027267
9304000,0.0324,0.013523,0.002678,0.000431,0.004701
9305000,0.0324,0.013523,0.002678,0.000431,0.004701
9306000,0.0324,0.013523,0.002678,0.000431,0.015984
9307000,0.0324,0.013523,0.002678,0.000431,0.136098
9308000,0.0324,0.013523,0.002678,0.000431,0.057589
9309000,0.0324,0.013523,0.002678,0.000431,0.049832
9310000,0.0324,0.013523,0.002678,0.000431,0.019745
9311000,0.0324,0.013523,0.002678,0.000431,0.004466
9312000,0.0324,0.013523,0.002678,0.000431,0.004701
9313000,0.0324,0.013523,0.002678,0.000431,0.012223
9314000,0.0324,0.013523,0.002678,0.000431,0.065581
9315000,0.0324,0.013523,0.002678,0.000431,0.026561
9316000,0.0324,0.013523,0.002678,0.000431,0.019745
9317000,0.0324,0.013523,0.002678,0.000431,0.004701
9318000,0.0324,0.013523,0.002678,0.000431,0.004701
9319000,0.0324,0.013523,0.002678,0.000431,0.004701
9320000,0.0324,0.013523,0.002678,0.000431,0.004701
9321000,0.0324,0.013523,0.002678,0.000431,0.008462
9322000,0.0324,0.013523,0.002678,0.000431,0.046071
9323000,0.0324,0.013523,0.002678,0.000431,0.004701
9324000,0.0324,0.013523,0.002678,0.000431,0.004701
9325000,0.0324,0.013523,0.002678,0.000431,0.019510
9326000,0.0324,0.013523,0.002678,0.000431,0.004701
9327000,0.0324,0.013523,0.002678,0.000431,0.022095
9328000,0.0324,0.013523,0.002678,0.000431,0.017629
9329000,0.0324,0.013523,0.002678,0.000431,0.004701
9330000,0.0324,0.013523,0.002678,0.000431,0.004701
9331000,0.0324,0.013523,0.002678,0.000431,0.004701
9332000,0.0324,0.013523,0.002678,0.000431,0.041840
9333000,0.0324,0.013523,0.002678,0.000431,0.004701
9334000,0.0324,0.013523,0.002678,0.000431,0.019745
9335000,0.0324,0.013523,0.002678,0.000431,0.022213
9336000,0.0324,0.013523,0.002678,0.000431,0.017277
9337000,0.0324,0.013523,0.002678,0.000431,0.004701
9338000,0.0324,0.013523,0.002678,0.000431,0.019745
9339000,0.0324,0.013523,0.002678,0.000431,0.004701
9340000,0.0324,0.013523,0.002678,0.000431,0.052653
9341000,0.0324,0.013523,0.002678,0.000431,0.054298
9342000,0.0324,0.013523,0.002678,0.000431,0.019745
9343000,0.0324,0.013523,0.002678,0.000431,0.004701
9344000,0.0324,0.013523,0.002678,0.000431,0.008462
9345000,0.0324,0.013523,0.002678,0.000431,0.008462
9346000,0.0324,0.013523,0.002678,0.000431,0.004701
9347000,0.0324,0.013523,0.002678,0.000431,0.080154
9348000,0.0324,0.013523,0.002678,0.000431,0.030440
9349000,0.0324,0.013523,0.002678,0.000431,0.061702
9350000,0.0324,0.013523,0.002678,0.000431,0.004701
9351000,0.0324,0.013523,0.002678,0.000431,0.034788
9352000,0.0324,0.013523,0.002678,0.000431,0.004701
9353000,0.0324,0.013523,0.002678,0.000431,0.087088
9354000,0.0324,0.013523,0.002678,0.000431,0.072750
9355000,0.0324,0.013523,0.002678,0.000431,0.094963
9356000,0.0324,0.013523,0.002678,0.000431,0.004701
9357000,0.0324,0.013523,0.002678,0.000431,0.016807
9358000,0.0324,0.013523,0.002678,0.000431,0.007639
9359000,0.0324,0.013523,0.002678,0.000431,0.004701
9360000,0.0324,0.013523,0.002678,0.000431,0.004701
9361000,0.0324,0.013523,0.002678,0.000431,0.004701
9362000,0.0324,0.013523,0.002678,0.000431,0.004466
9363000,0.0324,0.013523,0.002678,0.000431,0.004701
9364000,0.0324,0.013523,0.002678,0.000431,0.004701
9365000,0.0324,0.013523,0.002678,0.000431,0.004701
9366000,0.0324,0.013523,0.002678,0.000431,0.015396
9367000,0.0324,0.013523,0.002678,0.000431,0.085796
9368000,0.0324,0.013523,0.002678,0.000431,0.010930
9369000,0.0324,0.013523,0.002678,0.000431,0.004701
9370000,0.0324,0.013523,0.002678,0.000431,0.067344
9371000,0.0324,0.013523,0.002678,0.000431,0.125755
9372000,0.0324,0.013523,0.002678,0.000431,0.011753
9373000,0.0324,0.013523,0.002678,0.000431,0.053593
9374000,0.0324,0.013523,0.002678,0.000431,0.019862
9375000,0.0324,0.013523,0.002678,0.000431,0.004701
9376000,0.0324,0.013523,0.002678,0.000431,0.004701
9377000,0.0324,0.013523,0.002678,0.000431,0.049832
9378000,0.0324,0.013523,0.002678,0.000431,0.004701
9379000,0.0324,0.013523,0.002678,0.000431,0.042310
9380000,0.0324,0.013523,0.002678,0.000431,0.057354
9381000,0.0324,0.013523,0.002678,0.000431,0.004701
9382000,0.0324,0.013523,0.002678,0.000431,0.004701
9383000,0.0324,0.013523,0.002678,0.000431,0.008462
9384000,0.0324,0.013523,0.002678,0.000431,0.008462
9385000,0.0324,0.013523,0.002678,0.000431,0.004701
9386000,0.0324,0.013523,0.002678,0.000431,0.015279
9387000,0.0324,0.013523,0.002678,0.000431,0.121524
9388000,0.0324,0.013523,0.002678,0.000431,0.004701
9389000,0.0324,0.013523,0.002678,0.000431,0.004701
9390000,0.0324,0.013523,0.002678,0.000431,0.004701
9391000,0.0324,0.013523,0.002678,0.000431,0.004701
9392000,0.0324,0.013523,0.002678,0.000431,0.004701
9393000,0.0324,0.013523,0.002678,0.000431,0.057706
9394000,0.0324,0.013523,0.002678,0.000431,0.026914
9395000,0.0324,0.013523,0.002678,0.000431,0.004701
9396000,0.0324,0.013523,0.002678,0.000431,0.004466
9397000,0.0324,0.013523,0.002678,0.000431,0.012928
9398000,0.0324,0.013523,0.002678,0.000431,0.026561
9399000,0.0324,0.013523,0.002678,0.000431,0.019745
9400000,0.0324,0.013523,0.002678,0.000431,0.118586
9401000,0.0324,0.013523,0.002678,0.000431,0.018687
9402000,0.0324,0.013523,0.002678,0.000431,0.004701
9403000,0.0324,0.013523,0.002678,0.000431,0.012223
9404000,0.0324,0.013523,0.002678,0.000431,0.004701
9405000,0.0324,0.013523,0.002678,0.000431,0.004701
9406000,0.0324,0.013523,0.002678,0.000431,0.027267
9407000,0.0324,0.013523,0.002678,0.000431,0.064876
9408000,0.0324,0.013523,0.002678,0.000431,0.004701
9409000,0.0324,0.013523,0.002678,0.000431,0.074630
9410000,0.0324,0.013523,0.002678,0.000431,0.055356
9411000,0.0324,0.013523,0.002678,0.000431,0.019040
9412000,0.0324,0.013523,0.002678,0.000431,0.004701
9413000,0.0324,0.013523,0.002678,0.000431,0.034788
9414000,0.0324,0.013523,0.002678,0.000431,0.004701
9415000,0.0324,0.013523,0.002678,0.000431,0.004701
9416000,0.0324,0.013523,0.002678,0.000431,0.034788
9417000,0.0324,0.013523,0.002678,0.000431,0.117528
9418000,0.0324,0.013523,0.002678,0.000431,0.004701
9419000,0.0324,0.013523,0.002678,0.000431,0.004701
9420000,0.0324,0.013523,0.002678,0.000431,0.004701
9421000,0.0324,0.013523,0.002678,0.000431,0.004701
9422000,0.0324,0.013523,0.002678,0.000431,0.004701
9423000,0.0324,0.013523,0.002678,0.000431,0.034788
9424000,0.0324,0.013523,0.002678,0.000431,0.004701
9425000,0.0324,0.013523,0.002678,0.000431,0.004701
9426000,0.0324,0.013523,0.002678,0.000431,0.057354
9427000,0.0324,0.013523,0.002678,0.000431,0.004701
9428000,0.0324,0.013523,0.002678,0.000431,0.004701
9429000,0.0324,0.013523,0.002678,0.000431,0.007874
9430000,0.0324,0.013523,0.002678,0.000431,0.054180
9431000,0.0324,0.013523,0.002678,0.000431,0.004701
9432000,0.0324,0.013523,0.002678,0.000431,0.090262
9433000,0.0324,0.013523,0.002678,0.000431,0.047011
9434000,0.0324,0.013523,0.002678,0.000431,0.004701
9435000,0.0324,0.013523,0.002678,0.000431,0.004466
9436000,0.0324,0.013523,0.002678,0.000431,0.011988
9437000,0.0324,0.013523,0.002678,0.000431,0.004701
9438000,0.0324,0.013523,0.002678,0.000431,0.004701
9439000,0.0324,0.013523,0.002678,0.000431,0.057354
9440000,0.0324,0.013523,0.002678,0.000431,0.004701
9441000,0.0324,0.013523,0.002678,0.000431,0.004701
9442000,0.0324,0.013523,0.002678,0.000431,0.041017
9443000,0.0324,0.013523,0.002678,0.000431,0.118586
9444000,0.0324,0.013523,0.002678,0.000431,0.004701
9445000,0.0324,0.013523,0.002678,0.000431,0.019510
9446000,0.0324,0.013523,0.002678,0.000431,0.004701
9447000,0.0324,0.013523,0.002678,0.000431,0.004701
9448000,0.0324,0.013523,0.002678,0.000431,0.004701
9449000,0.0324,0.013523,0.002678,0.000431,0.064876
9450000,0.0324,0.013523,0.002678,0.000431,0.004701
9451000,0.0324,0.013523,0.002678,0.000431,0.019157
9452000,0.0324,0.013523,0.002678,0.000431,0.088264
9453000,0.0324,0.013523,0.002678,0.000431,0.004701
9454000,0.0324,0.013523,0.002678,0.000431,0.004701
9455000,0.0324,0.013523,0.002678,0.000431,0.013046
9456000,0.0324,0.013523,0.002678,0.000431,0.011400
9457000,0.0324,0.013523,0.002678,0.000431,0.004701
9458000,0.0324,0.013523,0.002678,0.000431,0.072397
9459000,0.0324,0.013523,0.002678,0.000431,0.004701
9460000,0.0324,0.013523,0.002678,0.000431,0.004701
9461000,0.0324,0.013523,0.002678,0.000431,0.004701
9462000,0.0324,0.013523,0.002678,0.000431,0.106245
9463000,0.0324,0.013523,0.002678,0.000431,0.015866
9464000,0.0324,0.013523,0.002678,0.000431,0.014573
9465000,0.0324,0.013523,0.002678,0.000431,0.045366
9466000,0.0324,0.013523,0.002678,0.000431,0.006464
9467000,0.0324,0.013523,0.002678,0.000431,0.004701
9468000,0.0324,0.013523,0.002678,0.000431,0.004701
9469000,0.0324,0.013523,0.002678,0.000431,0.049832
9470000,0.0324,0.013523,0.002678,0.000431,0.004701
9471000,0.0324,0.013523,0.002678,0.000431,0.004701
9472000,0.0324,0.013523,0.002678,0.000431,0.012223
9473000,0.0324,0.013523,0.002678,0.000431,0.004701
9474000,0.0324,0.013523,0.002678,0.000431,0.010342
9475000,0.0324,0.013523,0.002678,0.000431,0.044191
9476000,0.0324,0.013523,0.002678,0.000431,0.027267
9477000,0.0324,0.013523,0.002678,0.000431,0.004701
9478000,0.0324,0.013523,0.002678,0.000431,0.004701
9479000,0.0324,0.013523,0.002678,0.000431,0.004701
9480000,0.0324,0.013523,0.002678,0.000431,0.004701
9481000,0.0324,0.013523,0.002678,0.000431,0.079919
9482000,0.0324,0.013523,0.002678,0.000431,0.004466
9483000,0.0324,0.013523,0.002678,0.000431,0.019745
9484000,0.0324,0.013523,0.002678,0.000431,0.004701
9485000,0.0324,0.013523,0.002678,0.000431,0.079684
9486000,0.0324,0.013523,0.002678,0.000431,0.004701
9487000,0.0324,0.013523,0.002678,0.000431,0.004701
9488000,0.0324,0.013523,0.002678,0.000431,0.004701
9489000,0.0324,0.013523,0.002678,0.000431,0.004701
9490000,0.0324,0.013523,0.002678,0.000431,0.042310
9491000,0.0324,0.013523,0.002678,0.000431,0.012223
9492000,0.0324,0.013523,0.002678,0.000431,0.004701
9493000,0.0324,0.013523,0.002678,0.000431,0.004701
9494000,0.0324,0.013523,0.002678,0.000431,0.004701
9495000,0.0324,0.013523,0.002678,0.000431,0.004701
9496000,0.0324,0.013523,0.002678,0.000431,0.004701
9497000,0.0324,0.013523,0.002678,0.000431,0.004701
9498000,0.0324,0.013523,0.002678,0.000431,0.042310
9499000,0.0324,0.013523,0.002678,0.000431,0.004701
9500000,0.0324,0.013523,0.002678,0.000431,0.026914
9501000,0.0324,0.013523,0.002678,0.000431,0.005054
9502000,0.0324,0.013523,0.002678,0.000431,0.004701
9503000,0.0324,0.013523,0.002678,0.000431,0.004584
9504000,0.0324,0.013523,0.002678,0.000431,0.004466
9505000,0.0324,0.013523,0.002678,0.000431,0.004584
9506000,0.0324,0.013523,0.002678,0.000431,0.008462
9507000,0.0324,0.013523,0.002678,0.000431,0.015984
9508000,0.0324,0.013523,0.002678,0.000431,0.004701
9509000,0.0324,0.013523,0.002678,0.000431,0.004466
9510000,0.0324,0.013523,0.002678,0.000431,0.012223
9511000,0.0324,0.013523,0.002678,0.000431,0.019745
9512000,0.0324,0.013523,0.002678,0.000431,0.004701
9513000,0.0324,0.013523,0.002678,0.000431,0.117528
9514000,0.0324,0.013523,0.002678,0.000431,0.004701
9515000,0.0324,0.013523,0.002678,0.000431,0.004701
9516000,0.0324,0.013523,0.002678,0.000431,0.096843
9517000,0.0324,0.013523,0.002678,0.000431,0.025386
9518000,0.0324,0.013523,0.002678,0.000431,0.004701
9519000,0.0324,0.013523,0.002678,0.000431,0.048422
9520000,0.0324,0.013523,0.002678,0.000431,0.096138
9521000,0.0324,0.013523,0.002678,0.000431,0.004701
9522000,0.0324,0.013523,0.002678,0.000431,0.004701
9523000,0.0324,0.013523,0.002678,0.000431,0.012223
9524000,0.0324,0.013523,0.002678,0.000431,0.004701
9525000,0.0324,0.013523,0.002678,0.000431,0.027149
9526000,0.0324,0.013523,0.002678,0.000431,0.004584
9527000,0.0324,0.013523,0.002678,0.000431,0.079919
9528000,0.0324,0.013523,0.002678,0.000431,0.004701
9529000,0.0324,0.013523,0.002678,0.000431,0.042310
9530000,0.0324,0.013523,0.002678,0.000431,0.004701
9531000,0.0324,0.013523,0.002678,0.000431,0.004701
9532000,0.0324,0.013523,0.002678,0.000431,0.007404
9533000,0.0324,0.013523,0.002678,0.000431,0.039607
9534000,0.0324,0.013523,0.002678,0.000431,0.034788
9535000,0.0324,0.013523,0.002678,0.000431,0.004701
9536000,0.0324,0.013523,0.002678,0.000431,0.004466
9537000,0.0324,0.013523,0.002678,0.000431,0.004701
9538000,0.0324,0.013523,0.002678,0.000431,0.022095
9539000,0.0324,0.013523,0.002678,0.000431,0.017394
9540000,0.0324,0.013523,0.002678,0.000431,0.004701
9541000,0.0324,0.013523,0.002678,0.000431,0.004701
9542000,0.0324,0.013523,0.002678,0.000431,0.004701
9543000,0.0324,0.013523,0.002678,0.000431,0.004701
9544000,0.0324,0.013523,0.002678,0.000431,0.019510
9545000,0.0324,0.013523,0.002678,0.000431,0.019745
9546000,0.0324,0.013523,0.002678,0.000431,0.004701
9547000,0.0324,0.013523,0.002678,0.000431,0.042310
9548000,0.0324,0.013523,0.002678,0.000431,0.004701
9549000,0.0324,0.013523,0.002678,0.000431,0.004466
9550000,0.0324,0.013523,0.002678,0.000431,0.019745
9551000,0.0324,0.013523,0.002678,0.000431,0.019745
9552000,0.0324,0.013523,0.002678,0.000431,0.004701
9553000,0.0324,0.013523,0.002678,0.000431,0.012223
9554000,0.0324,0.013523,0.002678,0.000431,0.004701
9555000,0.0324,0.013523,0.002678,0.000431,0.019745
9556000,0.0324,0.013523,0.002678,0.000431,0.004701
9557000,0.0324,0.013523,0.002678,0.000431,0.057236
9558000,0.0324,0.013523,0.002678,0.000431,0.012340
9559000,0.0324,0.013523,0.002678,0.000431,0.004701
9560000,0.0324,0.013523,0.002678,0.000431,0.004701
9561000,0.0324,0.013523,0.002678,0.000431,0.015984
9562000,0.0324,0.013523,0.002678,0.000431,0.008462
9563000,0.0324,0.013523,0.002678,0.000431,0.004819
9564000,0.0324,0.013523,0.002678,0.000431,0.031145
9565000,0.0324,0.013523,0.002678,0.000431,0.008462
9566000,0.0324,0.013523,0.002678,0.000431,0.071927
9567000,0.0324,0.013523,0.002678,0.000431,0.004701
9568000,0.0324,0.013523,0.002678,0.000431,0.027502
9569000,0.0324,0.013523,0.002678,0.000431,0.004701
9570000,0.0324,0.013523,0.002678,0.000431,0.012223
9571000,0.0324,0.013523,0.002678,0.000431,0.012223
9572000,0.0324,0.013523,0.002678,0.000431,0.014338
9573000,0.0324,0.013523,0.002678,0.000431,0.025151
9574000,0.0324,0.013523,0.002678,0.000431,0.064876
9575000,0.0324,0.013523,0.002678,0.000431,0.004701
9576000,0.0324,0.013523,0.002678,0.000431,0.034553
9577000,0.0324,0.013523,0.002678,0.000431,0.019980
9578000,0.0324,0.013523,0.002678,0.000431,0.004701
9579000,0.0324,0.013523,0.002678,0.000431,0.004701
9580000,0.0324,0.013523,0.002678,0.000431,0.015631
9581000,0.0324,0.013523,0.002678,0.000431,0.053945
9582000,0.0324,0.013523,0.002678,0.000431,0.004701
9583000,0.0324,0.013523,0.002678,0.000431,0.004701
9584000,0.0324,0.013523,0.002678,0.000431,0.027031
9585000,0.0324,0.013523,0.002678,0.000431,0.018569
9586000,0.0324,0.013523,0.002678,0.000431,0.005876
9587000,0.0324,0.013523,0.002678,0.000431,0.034671
9588000,0.0324,0.013523,0.002678,0.000431,0.005054
9589000,0.0324,0.013523,0.002678,0.000431,0.004584
9590000,0.0324,0.013523,0.002678,0.000431,0.049714
9591000,0.0324,0.013523,0.002678,0.000431,0.004701
9592000,0.0324,0.013523,0.002678,0.000431,0.004701
9593000,0.0324,0.013523,0.002678,0.000431,0.023153
9594000,0.0324,0.013523,0.002678,0.000431,0.016336
9595000,0.0324,0.013523,0.002678,0.000431,0.004701
9596000,0.0324,0.013523,0.002678,0.000431,0.012105
9597000,0.0324,0.013523,0.002678,0.000431,0.004819
9598000,0.0324,0.013523,0.002678,0.000431,0.004701
9599000,0.0324,0.013523,0.002678,0.000431,0.004584
9600000,0.0324,0.013523,0.002678,0.000431,0.019627
9601000,0.0324,0.013523,0.002678,0.000431,0.004701
9602000,0.0324,0.013523,0.002678,0.000431,0.012223
9603000,0.0324,0.013523,0.002678,0.000431,0.019745
9604000,0.0324,0.013523,0.002678,0.000431,0.004701
9605000,0.0324,0.013523,0.002678,0.000431,0.027267
9606000,0.0324,0.013523,0.002678,0.000431,0.004701
9607000,0.0324,0.013523,0.002678,0.000431,0.004936
9608000,0.0324,0.013523,0.002678,0.000431,0.004701
9609000,0.0324,0.013523,0.002678,0.000431,0.031850
9610000,0.0324,0.013523,0.002678,0.000431,0.007639
9611000,0.0324,0.013523,0.002678,0.000431,0.004701
9612000,0.0324,0.013523,0.002678,0.000431,0.004701
9613000,0.0324,0.013523,0.002678,0.000431,0.019745
9614000,0.0324,0.013523,0.002678,0.000431,0.004701
9615000,0.0324,0.013523,0.002678,0.000431,0.012223
9616000,0.0324,0.013523,0.002678,0.000431,0.049832
9617000,0.0324,0.013523,0.002678,0.000431,0.004701
9618000,0.0324,0.013523,0.002678,0.000431,0.004701
9619000,0.0324,0.013523,0.002678,0.000431,0.019745
9620000,0.0324,0.013523,0.002678,0.000431,0.004701
9621000,0.0324,0.013523,0.002678,0.000431,0.004701
9622000,0.0324,0.013523,0.002678,0.000431,0.064876
9623000,0.0324,0.013523,0.002678,0.000431,0.030910
9624000,0.0324,0.013523,0.002678,0.000431,0.015866
9625000,0.0324,0.013523,0.002678,0.000431,0.012928
9626000,0.0324,0.013523,0.002678,0.000431,0.056649
9627000,0.0324,0.013523,0.002678,0.000431,0.004584
9628000,0.0324,0.013523,0.002678,0.000431,0.004584
9629000,0.0324,0.013523,0.002678,0.000431,0.004584
9630000,0.0324,0.013523,0.002678,0.000431,0.087558
9631000,0.0324,0.013523,0.002678,0.000431,0.004701
9632000,0.0324,0.013523,0.002678,0.000431,0.004701
9633000,0.0324,0.013523,0.002678,0.000431,0.004701
9634000,0.0324,0.013523,0.002678,0.000431,0.004701
9635000,0.0324,0.013523,0.002678,0.000431,0.065111
9636000,0.0324,0.013523,0.002678,0.000431,0.008345
9637000,0.0324,0.013523,0.002678,0.000431,0.008345
9638000,0.0324,0.013523,0.002678,0.000431,0.017512
9639000,0.0324,0.013523,0.002678,0.000431,0.021978
9640000,0.0324,0.013523,0.002678,0.000431,0.004701
9641000,0.0324,0.013523,0.002678,0.000431,0.017629
9642000,0.0324,0.013523,0.002678,0.000431,0.164775
9643000,0.0324,0.013523,0.002678,0.000431,0.012223
9644000,0.0324,0.013523,0.002678,0.000431,0.004701
9645000,0.0324,0.013523,0.002678,0.000431,0.027267
9646000,0.0324,0.013523,0.002678,0.000431,0.004466
9647000,0.0324,0.013523,0.002678,0.000431,0.004701
9648000,0.0324,0.013523,0.002678,0.000431,0.012223
9649000,0.0324,0.013523,0.002678,0.000431,0.049832
9650000,0.0324,0.013523,0.002678,0.000431,0.004701
9651000,0.0324,0.013523,0.002678,0.000431,0.004701
9652000,0.0324,0.013523,0.002678,0.000431,0.004701
9653000,0.0324,0.013523,0.002678,0.000431,0.004701
9654000,0.0324,0.013523,0.002678,0.000431,0.008462
9655000,0.0324,0.013523,0.002678,0.000431,0.019745
9656000,0.0324,0.013523,0.002678,0.000431,0.008462
9657000,0.0324,0.013523,0.002678,0.000431,0.004701
9658000,0.0324,0.013523,0.002678,0.000431,0.004701
9659000,0.0324,0.013523,0.002678,0.000431,0.004701
9660000,0.0324,0.013523,0.002678,0.000431,0.004701
9661000,0.0324,0.013523,0.002678,0.000431,0.064876
9662000,0.0324,0.013523,0.002678,0.000431,0.019745
9663000,0.0324,0.013523,0.002678,0.000431,0.004701
9664000,0.0324,0.013523,0.002678,0.000431,0.008462
9665000,0.0324,0.013523,0.002678,0.000431,0.008462
9666000,0.0324,0.013523,0.002678,0.000431,0.004701
9667000,0.0324,0.013523,0.002678,0.000431,0.004584
9668000,0.0324,0.013523,0.002678,0.000431,0.034906
9669000,0.0324,0.013523,0.002678,0.000431,0.004936
9670000,0.0324,0.013523,0.002678,0.000431,0.004701
9671000,0.0324,0.013523,0.002678,0.000431,0.034788
9672000,0.0324,0.013523,0.002678,0.000431,0.004701
9673000,0.0324,0.013523,0.002678,0.000431,0.004701
9674000,0.0324,0.013523,0.002678,0.000431,0.012223
9675000,0.0324,0.013523,0.002678,0.000431,0.012223
9676000,0.0324,0.013523,0.002678,0.000431,0.004584
9677000,0.0324,0.013523,0.002678,0.000431,0.004584
9678000,0.0324,0.013523,0.002678,0.000431,0.004701
9679000,0.0324,0.013523,0.002678,0.000431,0.004701
9680000,0.0324,0.013523,0.002678,0.000431,0.030440
9681000,0.0324,0.013523,0.002678,0.000431,0.054180
9682000,0.0324,0.013523,0.002678,0.000431,0.004701
9683000,0.0324,0.013523,0.002678,0.000431,0.004701
9684000,0.0324,0.013523,0.002678,0.000431,0.004701
9685000,0.0324,0.013523,0.002678,0.000431,0.004701
9686000,0.0324,0.013523,0.002678,0.000431,0.004466
9687000,0.0324,0.013523,0.002678,0.000431,0.012223
9688000,0.0324,0.013523,0.002678,0.000431,0.027267
9689000,0.0324,0.013523,0.002678,0.000431,0.004701
9690000,0.0324,0.013523,0.002678,0.000431,0.042310
9691000,0.0324,0.013523,0.002678,0.000431,0.004701
9692000,0.0324,0.013523,0.002678,0.000431,0.004701
9693000,0.0324,0.013523,0.002678,0.000431,0.015984
9694000,0.0324,0.013523,0.002678,0.000431,0.046071
9695000,0.0324,0.013523,0.002678,0.000431,0.004701
9696000,0.0324,0.013523,0.002678,0.000431,0.004701
9697000,0.0324,0.013523,0.002678,0.000431,0.004701
9698000,0.0324,0.013523,0.002678,0.000431,0.004701
9699000,0.0324,0.013523,0.002678,0.000431,0.004701
9700000,0.0324,0.013523,0.002678,0.000431,0.025151
9701000,0.0324,0.013523,0.002678,0.000431,0.112122
9702000,0.0324,0.013523,0.002678,0.000431,0.004701
9703000,0.0324,0.013523,0.002678,0.000431,0.019745
9704000,0.0324,0.013523,0.002678,0.000431,0.004701
9705000,0.0324,0.013523,0.002678,0.000431,0.004466
9706000,0.0324,0.013523,0.002678,0.000431,0.004701
9707000,0.0324,0.013523,0.002678,0.000431,0.015984
9708000,0.0324,0.013523,0.002678,0.000431,0.008227
9709000,0.0324,0.013523,0.002678,0.000431,0.004701
9710000,0.0324,0.013523,0.002678,0.000431,0.004701
9711000,0.0324,0.013523,0.002678,0.000431,0.004701
9712000,0.0324,0.013523,0.002678,0.000431,0.004584
9713000,0.0324,0.013523,0.002678,0.000431,0.015279
9714000,0.0324,0.013523,0.002678,0.000431,0.069224
9715000,0.0324,0.013523,0.002678,0.000431,0.004701
9716000,0.0324,0.013523,0.002678,0.000431,0.042310
9717000,0.0324,0.013523,0.002678,0.000431,0.004701
9718000,0.0324,0.013523,0.002678,0.000431,0.004701
9719000,0.0324,0.013523,0.002678,0.000431,0.008462
9720000,0.0324,0.013523,0.002678,0.000431,0.046071
9721000,0.0324,0.013523,0.002678,0.000431,0.004701
9722000,0.0324,0.013523,0.002678,0.000431,0.012223
9723000,0.0324,0.013523,0.002678,0.000431,0.004701
9724000,0.0324,0.013523,0.002678,0.000431,0.004701
9725000,0.0324,0.013523,0.002678,0.000431,0.004701
9726000,0.0324,0.013523,0.002678,0.000431,0.087206
9727000,0.0324,0.013523,0.002678,0.000431,0.019745
9728000,0.0324,0.013523,0.002678,0.000431,0.015866
9729000,0.0324,0.013523,0.002678,0.000431,0.023623
9730000,0.0324,0.013523,0.002678,0.000431,0.004701
9731000,0.0324,0.013523,0.002678,0.000431,0.004701
9732000,0.0324,0.013523,0.002678,0.000431,0.004701
9733000,0.0324,0.013523,0.002678,0.000431,0.079919
9734000,0.0324,0.013523,0.002678,0.000431,0.004701
9735000,0.0324,0.013523,0.002678,0.000431,0.012223
9736000,0.0324,0.013523,0.002678,0.000431,0.004701
9737000,0.0324,0.013523,0.002678,0.000431,0.004701
9738000,0.0324,0.013523,0.002678,0.000431,0.004701
9739000,0.0324,0.013523,0.002678,0.000431,0.012105
9740000,0.0324,0.013523,0.002678,0.000431,0.019862
9741000,0.0324,0.013523,0.002678,0.000431,0.004701
9742000,0.0324,0.013523,0.002678,0.000431,0.004466
9743000,0.0324,0.013523,0.002678,0.000431,0.004701
9744000,0.0324,0.013523,0.002678,0.000431,0.004701
9745000,0.0324,0.013523,0.002678,0.000431,0.004466
9746000,0.0324,0.013523,0.002678,0.000431,0.015866
9747000,0.0324,0.013523,0.002678,0.000431,0.008580
9748000,0.0324,0.013523,0.002678,0.000431,0.004466
9749000,0.0324,0.013523,0.002678,0.000431,0.004701
9750000,0.0324,0.013523,0.002678,0.000431,0.004701
9751000,0.0324,0.013523,0.002678,0.000431,0.004701
9752000,0.0324,0.013523,0.002678,0.000431,0.019627
9753000,0.0324,0.013523,0.002678,0.000431,0.012105
9754000,0.0324,0.013523,0.002678,0.000431,0.027267
9755000,0.0324,0.013523,0.002678,0.000431,0.019745
9756000,0.0324,0.013523,0.002678,0.000431,0.004701
9757000,0.0324,0.013523,0.002678,0.000431,0.004701
9758000,0.0324,0.013523,0.002678,0.000431,0.004701
9759000,0.0324,0.013523,0.002678,0.000431,0.064876
9760000,0.0324,0.013523,0.002678,0.000431,0.004701
9761000,0.0324,0.013523,0.002678,0.000431,0.012223
9762000,0.0324,0.013523,0.002678,0.000431,0.004701
9763000,0.0324,0.013523,0.002678,0.000431,0.004701
9764000,0.0324,0.013523,0.002678,0.000431,0.004701
9765000,0.0324,0.013523,0.002678,0.000431,0.004701
9766000,0.0324,0.013523,0.002678,0.000431,0.004701
9767000,0.0324,0.013523,0.002678,0.000431,0.097548
9768000,0.0324,0.013523,0.002678,0.000431,0.047011
9769000,0.0324,0.013523,0.002678,0.000431,0.004701
9770000,0.0324,0.013523,0.002678,0.000431,0.004701
9771000,0.0324,0.013523,0.002678,0.000431,0.014809
9772000,0.0324,0.013523,0.002678,0.000431,0.024681
9773000,0.0324,0.013523,0.002678,0.000431,0.004701
9774000,0.0324,0.013523,0.002678,0.000431,0.004701
9775000,0.0324,0.013523,0.002678,0.000431,0.004701
9776000,0.0324,0.013523,0.002678,0.000431,0.004701
9777000,0.0324,0.013523,0.002678,0.000431,0.007052
9778000,0.0324,0.013523,0.002678,0.000431,0.111299
9779000,0.0324,0.013523,0.002678,0.000431,0.023623
9780000,0.0324,0.013523,0.002678,0.000431,0.004701
9781000,0.0324,0.013523,0.002678,0.000431,0.004701
9782000,0.0324,0.013523,0.002678,0.000431,0.004466
9783000,0.0324,0.013523,0.002678,0.000431,0.004701
9784000,0.0324,0.013523,0.002678,0.000431,0.058059
9785000,0.0324,0.013523,0.002678,0.000431,0.011283
9786000,0.0324,0.013523,0.002678,0.000431,0.004701
9787000,0.0324,0.013523,0.002678,0.000431,0.027267
9788000,0.0324,0.013523,0.002678,0.000431,0.004701
9789000,0.0324,0.013523,0.002678,0.000431,0.004701
9790000,0.0324,0.013523,0.002678,0.000431,0.008580
9791000,0.0324,0.013523,0.002678,0.000431,0.012340
9792000,0.0324,0.013523,0.002678,0.000431,0.008345
9793000,0.0324,0.013523,0.002678,0.000431,0.004584
9794000,0.0324,0.013523,0.002678,0.000431,0.004701
9795000,0.0324,0.013523,0.002678,0.000431,0.004701
9796000,0.0324,0.013523,0.002678,0.000431,0.004701
9797000,0.0324,0.013523,0.002678,0.000431,0.012223
9798000,0.0324,0.013523,0.002678,0.000431,0.027267
9799000,0.0324,0.013523,0.002678,0.000431,0.004701
9800000,0.0324,0.013523,0.002678,0.000431,0.004701
9801000,0.0324,0.013523,0.002678,0.000431,0.004701
9802000,0.0324,0.013523,0.002678,0.000431,0.004701
9803000,0.0324,0.013523,0.002678,0.000431,0.004584
9804000,0.0324,0.013523,0.002678,0.000431,0.004584
9805000,0.0324,0.013523,0.002678,0.000431,0.004701
9806000,0.0324,0.013523,0.002678,0.000431,0.012223
9807000,0.0324,0.013523,0.002678,0.000431,0.004701
9808000,0.0324,0.013523,0.002678,0.000431,0.004701
9809000,0.0324,0.013523,0.002678,0.000431,0.004701
9810000,0.0324,0.013523,0.002678,0.000431,0.072397
9811000,0.0324,0.013523,0.002678,0.000431,0.019745
9812000,0.0324,0.013523,0.002678,0.000431,0.004701
9813000,0.0324,0.013523,0.002678,0.000431,0.004701
9814000,0.0324,0.013523,0.002678,0.000431,0.004701
9815000,0.0324,0.013523,0.002678,0.000431,0.004701
9816000,0.0324,0.013523,0.002678,0.000431,0.009990
9817000,0.0324,0.013523,0.002678,0.000431,0.045483
9818000,0.0324,0.013523,0.002678,0.000431,0.011283
9819000,0.0324,0.013523,0.002678,0.000431,0.027267
9820000,0.0324,0.013523,0.002678,0.000431,0.004701
9821000,0.0324,0.013523,0.002678,0.000431,0.004701
9822000,0.0324,0.013523,0.002678,0.000431,0.004584
9823000,0.0324,0.013523,0.002678,0.000431,0.064758
9824000,0.0324,0.013523,0.002678,0.000431,0.087441
9825000,0.0324,0.013523,0.002678,0.000431,0.015044
9826000,0.0324,0.013523,0.002678,0.000431,0.016689
9827000,0.0324,0.013523,0.002678,0.000431,0.004701
9828000,0.0324,0.013523,0.002678,0.000431,0.004701
9829000,0.0324,0.013523,0.002678,0.000431,0.017629
9830000,0.0324,0.013523,0.002678,0.000431,0.006817
9831000,0.0324,0.013523,0.002678,0.000431,0.027267
9832000,0.0324,0.013523,0.002678,0.000431,0.049832
9833000,0.0324,0.013523,0.002678,0.000431,0.004466
9834000,0.0324,0.013523,0.002678,0.000431,0.004701
9835000,0.0324,0.013523,0.002678,0.000431,0.004701
9836000,0.0324,0.013523,0.002678,0.000431,0.057354
9837000,0.0324,0.013523,0.002678,0.000431,0.019745
9838000,0.0324,0.013523,0.002678,0.000431,0.022918
9839000,0.0324,0.013523,0.002678,0.000431,0.016571
9840000,0.0324,0.013523,0.002678,0.000431,0.004701
9841000,0.0324,0.013523,0.002678,0.000431,0.004701
9842000,0.0324,0.013523,0.002678,0.000431,0.008462
9843000,0.0324,0.013523,0.002678,0.000431,0.008462
9844000,0.0324,0.013523,0.002678,0.000431,0.004466
9845000,0.0324,0.013523,0.002678,0.000431,0.004701
9846000,0.0324,0.013523,0.002678,0.000431,0.004701
9847000,0.0324,0.013523,0.002678,0.000431,0.004701
9848000,0.0324,0.013523,0.002678,0.000431,0.004701
9849000,0.0324,0.013523,0.002678,0.000431,0.079919
9850000,0.0324,0.013523,0.002678,0.000431,0.034788
9851000,0.0324,0.013523,0.002678,0.000431,0.049832
9852000,0.0324,0.013523,0.002678,0.000431,0.004701
9853000,0.0324,0.013523,0.002678,0.000431,0.004701
9854000,0.0324,0.013523,0.002678,0.000431,0.004701
9855000,0.0324,0.013523,0.002678,0.000431,0.027267
9856000,0.0324,0.013523,0.002678,0.000431,0.012223
9857000,0.0324,0.013523,0.002678,0.000431,0.019980
9858000,0.0324,0.013523,0.002678,0.000431,0.087206
9859000,0.0324,0.013523,0.002678,0.000431,0.004701
9860000,0.0324,0.013523,0.002678,0.000431,0.004701
9861000,0.0324,0.013523,0.002678,0.000431,0.011283
9862000,0.0324,0.013523,0.002678,0.000431,0.125755
9863000,0.0324,0.013523,0.002678,0.000431,0.027267
9864000,0.0324,0.013523,0.002678,0.000431,0.027267
9865000,0.0324,0.013523,0.002678,0.000431,0.004584
9866000,0.0324,0.013523,0.002678,0.000431,0.004584
9867000,0.0324,0.013523,0.002678,0.000431,0.004701
9868000,0.0324,0.013523,0.002678,0.000431,0.018452
9869000,0.0324,0.013523,0.002678,0.000431,0.036316
9870000,0.0324,0.013523,0.002678,0.000431,0.015984
9871000,0.0324,0.013523,0.002678,0.000431,0.008462
9872000,0.0324,0.013523,0.002678,0.000431,0.004701
9873000,0.0324,0.013523,0.002678,0.000431,0.004466
9874000,0.0324,0.013523,0.002678,0.000431,0.015984
9875000,0.0324,0.013523,0.002678,0.000431,0.053593
9876000,0.0324,0.013523,0.002678,0.000431,0.027267
9877000,0.0324,0.013523,0.002678,0.000431,0.004701
9878000,0.0324,0.013523,0.002678,0.000431,0.004701
9879000,0.0324,0.013523,0.002678,0.000431,0.004584
9880000,0.0324,0.013523,0.002678,0.000431,0.004584
9881000,0.0324,0.013523,0.002678,0.000431,0.049832
9882000,0.0324,0.013523,0.002678,0.000431,0.019745
9883000,0.0324,0.013523,0.002678,0.000431,0.004701
9884000,0.0324,0.013523,0.002678,0.000431,0.019745
9885000,0.0324,0.013523,0.002678,0.000431,0.004701
9886000,0.0324,0.013523,0.002678,0.000431,0.004701
9887000,0.0324,0.013523,0.002678,0.000431,0.042193
9888000,0.0324,0.013523,0.002678,0.000431,0.042428
9889000,0.0324,0.013523,0.002678,0.000431,0.049832
9890000,0.0324,0.013523,0.002678,0.000431,0.004701
9891000,0.0324,0.013523,0.002678,0.000431,0.004701
9892000,0.0324,0.013523,0.002678,0.000431,0.004701
9893000,0.0324,0.013523,0.002678,0.000431,0.004701
9894000,0.0324,0.013523,0.002678,0.000431,0.004701
9895000,0.0324,0.013523,0.002678,0.000431,0.004701
9896000,0.0324,0.013523,0.002678,0.000431,0.023506
9897000,0.0324,0.013523,0.002678,0.000431,0.008462
9898000,0.0324,0.013523,0.002678,0.000431,0.004701
9899000,0.0324,0.013523,0.002678,0.000431,0.004701
9900000,0.0324,0.013523,0.002678,0.000431,0.005641
9901000,0.0324,0.013523,0.002678,0.000431,0.028442
9902000,0.0324,0.013523,0.002678,0.000431,0.040077
9903000,0.0324,0.013523,0.002678,0.000431,0.004584
9904000,0.0324,0.013523,0.002678,0.000431,0.004701
9905000,0.0324,0.013523,0.002678,0.000431,0.004584
9906000,0.0324,0.013523,0.002678,0.000431,0.008227
9907000,0.0324,0.013523,0.002678,0.000431,0.016101
9908000,0.0324,0.013523,0.002678,0.000431,0.012223
9909000,0.0324,0.013523,0.002678,0.000431,0.004701
9910000,0.0324,0.013523,0.002678,0.000431,0.004701
9911000,0.0324,0.013523,0.002678,0.000431,0.004701
9912000,0.0324,0.013523,0.002678,0.000431,0.004701
9913000,0.0324,0.013523,0.002678,0.000431,0.011988
9914000,0.0324,0.013523,0.002678,0.000431,0.016101
9915000,0.0324,0.013523,0.002678,0.000431,0.018452
9916000,0.0324,0.013523,0.002678,0.000431,0.024916
9917000,0.0324,0.013523,0.002678,0.000431,0.004701
9918000,0.0324,0.013523,0.002678,0.000431,0.004701
9919000,0.0324,0.013523,0.002678,0.000431,0.004701
9920000,0.0324,0.013523,0.002678,0.000431,0.019510
9921000,0.0324,0.013523,0.002678,0.000431,0.004701
9922000,0.0324,0.013523,0.002678,0.000431,0.012223
9923000,0.0324,0.013523,0.002678,0.000431,0.004701
9924000,0.0324,0.013523,0.002678,0.000431,0.004701
9925000,0.0324,0.013523,0.002678,0.000431,0.004701
9926000,0.0324,0.013523,0.002678,0.000431,0.044426
9927000,0.0324,0.013523,0.002678,0.000431,0.058059
9928000,0.0324,0.013523,0.002678,0.000431,0.128811
9929000,0.0324,0.013523,0.002678,0.000431,0.065581
9930000,0.0324,0.013523,0.002678,0.000431,0.004701
9931000,0.0324,0.013523,0.002678,0.000431,0.004701
9932000,0.0324,0.013523,0.002678,0.000431,0.012223
9933000,0.0324,0.013523,0.002678,0.000431,0.012223
9934000,0.0324,0.013523,0.002678,0.000431,0.004701
9935000,0.0324,0.013523,0.002678,0.000431,0.004701
9936000,0.0324,0.013523,0.002678,0.000431,0.004701
9937000,0.0324,0.013523,0.002678,0.000431,0.004701
9938000,0.0324,0.013523,0.002678,0.000431,0.031615
9939000,0.0324,0.013523,0.002678,0.000431,0.143267
9940000,0.0324,0.013523,0.002678,0.000431,0.004701
9941000,0.0324,0.013523,0.002678,0.000431,0.056649
9942000,0.0324,0.013523,0.002678,0.000431,0.012928
9943000,0.0324,0.013523,0.002678,0.000431,0.004701
9944000,0.0324,0.013523,0.002678,0.000431,0.004701
9945000,0.0324,0.013523,0.002678,0.000431,0.012223
9946000,0.0324,0.013523,0.002678,0.000431,0.004701
9947000,0.0324,0.013523,0.002678,0.000431,0.012223
9948000,0.0324,0.013523,0.002678,0.000431,0.087441
9949000,0.0324,0.013523,0.002678,0.000431,0.004584
9950000,0.0324,0.013523,0.002678,0.000431,0.004584
9951000,0.0324,0.013523,0.002678,0.000431,0.005289
9952000,0.0324,0.013523,0.002678,0.000431,0.101662
9953000,0.0324,0.013523,0.002678,0.000431,0.004701
9954000,0.0324,0.013523,0.002678,0.000431,0.004584
9955000,0.0324,0.013523,0.002678,0.000431,0.004584
9956000,0.0324,0.013523,0.002678,0.000431,0.004701
9957000,0.0324,0.013523,0.002678,0.000431,0.004701
9958000,0.0324,0.013523,0.002678,0.000431,0.019745
9959000,0.0324,0.013523,0.002678,0.000431,0.004701
9960000,0.0324,0.013523,0.002678,0.000431,0.004466
9961000,0.0324,0.013523,0.002678,0.000431,0.034788
9962000,0.0324,0.013523,0.002678,0.000431,0.004701
9963000,0.0324,0.013523,0.002678,0.000431,0.004701
9964000,0.0324,0.013523,0.002678,0.000431,0.012223
9965000,0.0324,0.013523,0.002678,0.000431,0.012223
9966000,0.0324,0.013523,0.002678,0.000431,0.004701
9967000,0.0324,0.013523,0.002678,0.000431,0.057589
9968000,0.0324,0.013523,0.002678,0.000431,0.004701
9969000,0.0324,0.013523,0.002678,0.000431,0.004701
9970000,0.0324,0.013523,0.002678,0.000431,0.004701
9971000,0.0324,0.013523,0.002678,0.000431,0.027267
9972000,0.0324,0.013523,0.002678,0.000431,0.004701
9973000,0.0324,0.013523,0.002678,0.000431,0.015984
9974000,0.0324,0.013523,0.002678,0.000431,0.023506
9975000,0.0324,0.013523,0.002678,0.000431,0.004701
9976000,0.0324,0.013523,0.002678,0.000431,0.004701
9977000,0.0324,0.013523,0.002678,0.000431,0.042193
9978000,0.0324,0.013523,0.002678,0.000431,0.027384
9979000,0.0324,0.013523,0.002678,0.000431,0.025034
9980000,0.0324,0.013523,0.002678,0.000431,0.014456
9981000,0.0324,0.013523,0.002678,0.000431,0.004701
9982000,0.0324,0.013523,0.002678,0.000431,0.004701
9983000,0.0324,0.013523,0.002678,0.000431,0.008227
9984000,0.0324,0.013523,0.002678,0.000431,0.053593
9985000,0.0324,0.013523,0.002678,0.000431,0.004701
9986000,0.0324,0.013523,0.002678,0.000431,0.064758
9987000,0.0324,0.013523,0.002678,0.000431,0.004584
9988000,0.0324,0.013523,0.002678,0.000431,0.004701
9989000,0.0324,0.013523,0.002678,0.000431,0.004701
9990000,0.0324,0.013523,0.002678,0.000431,0.004701
9991000,0.0324,0.013523,0.002678,0.000431,0.004701
9992000,0.0324,0.013523,0.002678,0.000431,0.019745
9993000,0.0324,0.013523,0.002678,0.000431,0.004701
9994000,0.0324,0.013523,0.002678,0.000431,0.004701
9995000,0.0324,0.013523,0.002678,0.000431,0.004466
9996000,0.0324,0.013523,0.002678,0.000431,0.004701
9997000,0.0324,0.013523,0.002678,0.000431,0.034788
9998000,0.0324,0.013523,0.002678,0.000431,0.004701
9999000,0.0324,0.013523,0.002678,0.000431,0.102485
