Cycle,Area(mm^2),PeakDynamic(W),SubthresholdLeakage(W),GateLeakage(W),RunTimeDynamic(W)
98000000,0.0324,0.013523,0.002678,0.000431,0.583998
98001000,0.0324,0.013523,0.002678,0.000431,0.243518
98002000,0.0324,0.013523,0.002678,0.000431,0.310980
98003000,0.0324,0.013523,0.002678,0.000431,0.290060
98004000,0.0324,0.013523,0.002678,0.000431,0.145970
98005000,0.0324,0.013523,0.002678,0.000431,0.117881
98006000,0.0324,0.013523,0.002678,0.000431,0.312390
98007000,0.0324,0.013523,0.002678,0.000431,0.351644
98008000,0.0324,0.013523,0.002678,0.000431,0.137978
98009000,0.0324,0.013523,0.002678,0.000431,0.123287
98010000,0.0324,0.013523,0.002678,0.000431,0.110712
98011000,0.0324,0.013523,0.002678,0.000431,0.098136
98012000,0.0324,0.013523,0.002678,0.000431,0.084620
98013000,0.0324,0.013523,0.002678,0.000431,0.072632
98014000,0.0324,0.013523,0.002678,0.000431,0.071927
98015000,0.0324,0.013523,0.002678,0.000431,0.068401
98016000,0.0324,0.013523,0.002678,0.000431,0.064641
98017000,0.0324,0.013523,0.002678,0.000431,0.056061
98018000,0.0324,0.013523,0.002678,0.000431,0.044543
98019000,0.0324,0.013523,0.002678,0.000431,0.035611
98020000,0.0324,0.013523,0.002678,0.000431,0.033025
98021000,0.0324,0.013523,0.002678,0.000431,0.034318
98022000,0.0324,0.013523,0.002678,0.000431,0.031615
98023000,0.0324,0.013523,0.002678,0.000431,0.033496
98024000,0.0324,0.013523,0.002678,0.000431,0.029852
98025000,0.0324,0.013523,0.002678,0.000431,0.024211
98026000,0.0324,0.013523,0.002678,0.000431,0.022448
98027000,0.0324,0.013523,0.002678,0.000431,0.019392
98028000,0.0324,0.013523,0.002678,0.000431,0.016807
98029000,0.0324,0.013523,0.002678,0.000431,0.019980
98030000,0.0324,0.013523,0.002678,0.000431,0.018334
98031000,0.0324,0.013523,0.002678,0.000431,0.016571
98032000,0.0324,0.013523,0.002678,0.000431,0.013633
98033000,0.0324,0.013523,0.002678,0.000431,0.010342
98034000,0.0324,0.013523,0.002678,0.000431,0.009520
98035000,0.0324,0.013523,0.002678,0.000431,0.009637
98036000,0.0324,0.013523,0.002678,0.000431,0.011165
98037000,0.0324,0.013523,0.002678,0.000431,0.010695
98038000,0.0324,0.013523,0.002678,0.000431,0.007169
98039000,0.0324,0.013523,0.002678,0.000431,0.006347
98040000,0.0324,0.013523,0.002678,0.000431,0.007639
98041000,0.0324,0.013523,0.002678,0.000431,0.005289
98042000,0.0324,0.013523,0.002678,0.000431,0.007404
98043000,0.0324,0.013523,0.002678,0.000431,0.004113
98044000,0.0324,0.013523,0.002678,0.000431,0.004113
98045000,0.0324,0.013523,0.002678,0.000431,0.003408
98046000,0.0324,0.013523,0.002678,0.000431,0.003996
98047000,0.0324,0.013523,0.002678,0.000431,0.005524
98048000,0.0324,0.013523,0.002678,0.000431,0.002586
98049000,0.0324,0.013523,0.002678,0.000431,0.002821
98050000,0.0324,0.013523,0.002678,0.000431,0.002703
98051000,0.0324,0.013523,0.002678,0.000431,0.003761
98052000,0.0324,0.013523,0.002678,0.000431,0.003526
98053000,0.0324,0.013523,0.002678,0.000431,0.002586
98054000,0.0324,0.013523,0.002678,0.000431,0.000823
98055000,0.0324,0.013523,0.002678,0.000431,0.000940
98056000,0.0324,0.013523,0.002678,0.000431,0.000940
98057000,0.0324,0.013523,0.002678,0.000431,0.000823
98058000,0.0324,0.013523,0.002678,0.000431,0.000823
98059000,0.0324,0.013523,0.002678,0.000431,0.000940
98060000,0.0324,0.013523,0.002678,0.000431,0.000823
98061000,0.0324,0.013523,0.002678,0.000431,0.000940
98062000,0.0324,0.013523,0.002678,0.000431,0.000823
98063000,0.0324,0.013523,0.002678,0.000431,0.000940
98064000,0.0324,0.013523,0.002678,0.000431,0.000823
98065000,0.0324,0.013523,0.002678,0.000431,0.000823
98066000,0.0324,0.013523,0.002678,0.000431,0.000940
98067000,0.0324,0.013523,0.002678,0.000431,0.001880
98068000,0.0324,0.013523,0.002678,0.000431,0.419105
98069000,0.0324,0.013523,0.002678,0.000431,0.693769
98070000,0.0324,0.013523,0.002678,0.000431,0.199680
98071000,0.0324,0.013523,0.002678,0.000431,0.134687
98072000,0.0324,0.013523,0.002678,0.000431,0.171591
98073000,0.0324,0.013523,0.002678,0.000431,0.645112
98074000,0.0324,0.013523,0.002678,0.000431,0.238230
98075000,0.0324,0.013523,0.002678,0.000431,0.310157
98076000,0.0324,0.013523,0.002678,0.000431,0.191101
98077000,0.0324,0.013523,0.002678,0.000431,0.148556
98078000,0.0324,0.013523,0.002678,0.000431,0.118939
98079000,0.0324,0.013523,0.002678,0.000431,0.335778
98080000,0.0324,0.013523,0.002678,0.000431,0.367746
98081000,0.0324,0.013523,0.002678,0.000431,0.186752
98082000,0.0324,0.013523,0.002678,0.000431,0.154432
98083000,0.0324,0.013523,0.002678,0.000431,0.147498
98084000,0.0324,0.013523,0.002678,0.000431,0.119879
98085000,0.0324,0.013523,0.002678,0.000431,0.114120
98086000,0.0324,0.013523,0.002678,0.000431,0.108714
98087000,0.0324,0.013523,0.002678,0.000431,0.095785
98088000,0.0324,0.013523,0.002678,0.000431,0.083798
98089000,0.0324,0.013523,0.002678,0.000431,0.083210
98090000,0.0324,0.013523,0.002678,0.000431,0.071457
98091000,0.0324,0.013523,0.002678,0.000431,0.063230
98092000,0.0324,0.013523,0.002678,0.000431,0.062172
98093000,0.0324,0.013523,0.002678,0.000431,0.059587
98094000,0.0324,0.013523,0.002678,0.000431,0.047716
98095000,0.0324,0.013523,0.002678,0.000431,0.047129
98096000,0.0324,0.013523,0.002678,0.000431,0.042193
98097000,0.0324,0.013523,0.002678,0.000431,0.049597
98098000,0.0324,0.013523,0.002678,0.000431,0.037491
98099000,0.0324,0.013523,0.002678,0.000431,0.034906
98100000,0.0324,0.013523,0.002678,0.000431,0.031733
98101000,0.0324,0.013523,0.002678,0.000431,0.032555
98102000,0.0324,0.013523,0.002678,0.000431,0.024563
98103000,0.0324,0.013523,0.002678,0.000431,0.026091
98104000,0.0324,0.013523,0.002678,0.000431,0.025151
98105000,0.0324,0.013523,0.002678,0.000431,0.022683
98106000,0.0324,0.013523,0.002678,0.000431,0.020097
98107000,0.0324,0.013523,0.002678,0.000431,0.020567
98108000,0.0324,0.013523,0.002678,0.000431,0.019980
98109000,0.0324,0.013523,0.002678,0.000431,0.019862
98110000,0.0324,0.013523,0.002678,0.000431,0.018922
98111000,0.0324,0.013523,0.002678,0.000431,0.016924
98112000,0.0324,0.013523,0.002678,0.000431,0.020920
98113000,0.0324,0.013523,0.002678,0.000431,0.019980
98114000,0.0324,0.013523,0.002678,0.000431,0.015279
98115000,0.0324,0.013523,0.002678,0.000431,0.012340
98116000,0.0324,0.013523,0.002678,0.000431,0.013751
98117000,0.0324,0.013523,0.002678,0.000431,0.012223
98118000,0.0324,0.013523,0.002678,0.000431,0.011283
98119000,0.0324,0.013523,0.002678,0.000431,0.011400
98120000,0.0324,0.013523,0.002678,0.000431,0.011753
98121000,0.0324,0.013523,0.002678,0.000431,0.011165
98122000,0.0324,0.013523,0.002678,0.000431,0.012105
98123000,0.0324,0.013523,0.002678,0.000431,0.010578
98124000,0.0324,0.013523,0.002678,0.000431,0.014103
98125000,0.0324,0.013523,0.002678,0.000431,0.010460
98126000,0.0324,0.013523,0.002678,0.000431,0.010460
98127000,0.0324,0.013523,0.002678,0.000431,0.010695
98128000,0.0324,0.013523,0.002678,0.000431,0.010107
98129000,0.0324,0.013523,0.002678,0.000431,0.010930
98130000,0.0324,0.013523,0.002678,0.000431,0.010107
98131000,0.0324,0.013523,0.002678,0.000431,0.010930
98132000,0.0324,0.013523,0.002678,0.000431,0.009050
98133000,0.0324,0.013523,0.002678,0.000431,0.008580
98134000,0.0324,0.013523,0.002678,0.000431,0.009167
98135000,0.0324,0.013523,0.002678,0.000431,0.010225
98136000,0.0324,0.013523,0.002678,0.000431,0.008227
98137000,0.0324,0.013523,0.002678,0.000431,0.007639
98138000,0.0324,0.013523,0.002678,0.000431,0.007992
98139000,0.0324,0.013523,0.002678,0.000431,0.008462
98140000,0.0324,0.013523,0.002678,0.000431,0.007757
98141000,0.0324,0.013523,0.002678,0.000431,0.008109
98142000,0.0324,0.013523,0.002678,0.000431,0.007874
98143000,0.0324,0.013523,0.002678,0.000431,0.009637
98144000,0.0324,0.013523,0.002678,0.000431,0.005994
98145000,0.0324,0.013523,0.002678,0.000431,0.007287
98146000,0.0324,0.013523,0.002678,0.000431,0.006229
98147000,0.0324,0.013523,0.002678,0.000431,0.005406
98148000,0.0324,0.013523,0.002678,0.000431,0.005406
98149000,0.0324,0.013523,0.002678,0.000431,0.007287
98150000,0.0324,0.013523,0.002678,0.000431,0.006699
98151000,0.0324,0.013523,0.002678,0.000431,0.004936
98152000,0.0324,0.013523,0.002678,0.000431,0.004113
98153000,0.0324,0.013523,0.002678,0.000431,0.005406
98154000,0.0324,0.013523,0.002678,0.000431,0.004349
98155000,0.0324,0.013523,0.002678,0.000431,0.005524
98156000,0.0324,0.013523,0.002678,0.000431,0.003173
98157000,0.0324,0.013523,0.002678,0.000431,0.003408
98158000,0.0324,0.013523,0.002678,0.000431,0.003643
98159000,0.0324,0.013523,0.002678,0.000431,0.006111
98160000,0.0324,0.013523,0.002678,0.000431,0.002233
98161000,0.0324,0.013523,0.002678,0.000431,0.002821
98162000,0.0324,0.013523,0.002678,0.000431,0.002468
98163000,0.0324,0.013523,0.002678,0.000431,0.002586
98164000,0.0324,0.013523,0.002678,0.000431,0.002468
98165000,0.0324,0.013523,0.002678,0.000431,0.002586
98166000,0.0324,0.013523,0.002678,0.000431,0.002468
98167000,0.0324,0.013523,0.002678,0.000431,0.002233
98168000,0.0324,0.013523,0.002678,0.000431,0.002821
98169000,0.0324,0.013523,0.002678,0.000431,0.002586
98170000,0.0324,0.013523,0.002678,0.000431,0.002586
98171000,0.0324,0.013523,0.002678,0.000431,0.002351
98172000,0.0324,0.013523,0.002678,0.000431,0.002586
98173000,0.0324,0.013523,0.002678,0.000431,0.002586
98174000,0.0324,0.013523,0.002678,0.000431,0.002351
98175000,0.0324,0.013523,0.002678,0.000431,0.002586
98176000,0.0324,0.013523,0.002678,0.000431,0.002821
98177000,0.0324,0.013523,0.002678,0.000431,0.002351
98178000,0.0324,0.013523,0.002678,0.000431,0.002468
98179000,0.0324,0.013523,0.002678,0.000431,0.002468
98180000,0.0324,0.013523,0.002678,0.000431,0.002586
98181000,0.0324,0.013523,0.002678,0.000431,0.002468
98182000,0.0324,0.013523,0.002678,0.000431,0.002586
98183000,0.0324,0.013523,0.002678,0.000431,0.002703
98184000,0.0324,0.013523,0.002678,0.000431,0.002351
98185000,0.0324,0.013523,0.002678,0.000431,0.002468
98186000,0.0324,0.013523,0.002678,0.000431,0.002586
98187000,0.0324,0.013523,0.002678,0.000431,0.002703
98188000,0.0324,0.013523,0.002678,0.000431,0.003996
98189000,0.0324,0.013523,0.002678,0.000431,0.001763
98190000,0.0324,0.013523,0.002678,0.000431,0.001880
98191000,0.0324,0.013523,0.002678,0.000431,0.001645
98192000,0.0324,0.013523,0.002678,0.000431,0.001410
98193000,0.0324,0.013523,0.002678,0.000431,0.001880
98194000,0.0324,0.013523,0.002678,0.000431,0.001645
98195000,0.0324,0.013523,0.002678,0.000431,0.001645
98196000,0.0324,0.013523,0.002678,0.000431,0.001410
98197000,0.0324,0.013523,0.002678,0.000431,0.001880
98198000,0.0324,0.013523,0.002678,0.000431,0.001645
98199000,0.0324,0.013523,0.002678,0.000431,0.001410
98200000,0.0324,0.013523,0.002678,0.000431,0.001880
98201000,0.0324,0.013523,0.002678,0.000431,0.001645
98202000,0.0324,0.013523,0.002678,0.000431,0.001645
98203000,0.0324,0.013523,0.002678,0.000431,0.001528
98204000,0.0324,0.013523,0.002678,0.000431,0.001763
98205000,0.0324,0.013523,0.002678,0.000431,0.001645
98206000,0.0324,0.013523,0.002678,0.000431,0.001645
98207000,0.0324,0.013523,0.002678,0.000431,0.001645
98208000,0.0324,0.013523,0.002678,0.000431,0.001645
98209000,0.0324,0.013523,0.002678,0.000431,0.001645
98210000,0.0324,0.013523,0.002678,0.000431,0.001645
98211000,0.0324,0.013523,0.002678,0.000431,0.001645
98212000,0.0324,0.013523,0.002678,0.000431,0.001645
98213000,0.0324,0.013523,0.002678,0.000431,0.001645
98214000,0.0324,0.013523,0.002678,0.000431,0.071692
98215000,0.0324,0.013523,0.002678,0.000431,0.650518
98216000,0.0324,0.013523,0.002678,0.000431,0.570012
98217000,0.0324,0.013523,0.002678,0.000431,0.137390
98218000,0.0324,0.013523,0.002678,0.000431,0.137155
98219000,0.0324,0.013523,0.002678,0.000431,0.573185
98220000,0.0324,0.013523,0.002678,0.000431,0.250218
98221000,0.0324,0.013523,0.002678,0.000431,0.291940
98222000,0.0324,0.013523,0.002678,0.000431,0.271608
98223000,0.0324,0.013523,0.002678,0.000431,0.139623
98224000,0.0324,0.013523,0.002678,0.000431,0.167830
98225000,0.0324,0.013523,0.002678,0.000431,0.145147
98226000,0.0324,0.013523,0.002678,0.000431,0.487389
98227000,0.0324,0.013523,0.002678,0.000431,0.200386
98228000,0.0324,0.013523,0.002678,0.000431,0.168418
98229000,0.0324,0.013523,0.002678,0.000431,0.137626
98230000,0.0324,0.013523,0.002678,0.000431,0.123875
98231000,0.0324,0.013523,0.002678,0.000431,0.109066
98232000,0.0324,0.013523,0.002678,0.000431,0.090027
98233000,0.0324,0.013523,0.002678,0.000431,0.078509
98234000,0.0324,0.013523,0.002678,0.000431,0.081330
98235000,0.0324,0.013523,0.002678,0.000431,0.070634
98236000,0.0324,0.013523,0.002678,0.000431,0.057471
98237000,0.0324,0.013523,0.002678,0.000431,0.055943
98238000,0.0324,0.013523,0.002678,0.000431,0.048657
98239000,0.0324,0.013523,0.002678,0.000431,0.047951
98240000,0.0324,0.013523,0.002678,0.000431,0.040547
98241000,0.0324,0.013523,0.002678,0.000431,0.037139
98242000,0.0324,0.013523,0.002678,0.000431,0.033143
98243000,0.0324,0.013523,0.002678,0.000431,0.035611
98244000,0.0324,0.013523,0.002678,0.000431,0.029852
98245000,0.0324,0.013523,0.002678,0.000431,0.031027
98246000,0.0324,0.013523,0.002678,0.000431,0.021860
98247000,0.0324,0.013523,0.002678,0.000431,0.022683
98248000,0.0324,0.013523,0.002678,0.000431,0.018334
98249000,0.0324,0.013523,0.002678,0.000431,0.021860
98250000,0.0324,0.013523,0.002678,0.000431,0.017864
98251000,0.0324,0.013523,0.002678,0.000431,0.017747
98252000,0.0324,0.013523,0.002678,0.000431,0.021273
98253000,0.0324,0.013523,0.002678,0.000431,0.014456
98254000,0.0324,0.013523,0.002678,0.000431,0.016689
98255000,0.0324,0.013523,0.002678,0.000431,0.014926
98256000,0.0324,0.013523,0.002678,0.000431,0.011988
98257000,0.0324,0.013523,0.002678,0.000431,0.012928
98258000,0.0324,0.013523,0.002678,0.000431,0.013281
98259000,0.0324,0.013523,0.002678,0.000431,0.015279
98260000,0.0324,0.013523,0.002678,0.000431,0.007287
98261000,0.0324,0.013523,0.002678,0.000431,0.007287
98262000,0.0324,0.013523,0.002678,0.000431,0.007522
98263000,0.0324,0.013523,0.002678,0.000431,0.006817
98264000,0.0324,0.013523,0.002678,0.000431,0.007404
98265000,0.0324,0.013523,0.002678,0.000431,0.007052
98266000,0.0324,0.013523,0.002678,0.000431,0.007287
98267000,0.0324,0.013523,0.002678,0.000431,0.006347
98268000,0.0324,0.013523,0.002678,0.000431,0.005876
98269000,0.0324,0.013523,0.002678,0.000431,0.006111
98270000,0.0324,0.013523,0.002678,0.000431,0.005876
98271000,0.0324,0.013523,0.002678,0.000431,0.008345
98272000,0.0324,0.013523,0.002678,0.000431,0.005054
98273000,0.0324,0.013523,0.002678,0.000431,0.004701
98274000,0.0324,0.013523,0.002678,0.000431,0.005289
98275000,0.0324,0.013523,0.002678,0.000431,0.007639
98276000,0.0324,0.013523,0.002678,0.000431,0.005054
98277000,0.0324,0.013523,0.002678,0.000431,0.003173
98278000,0.0324,0.013523,0.002678,0.000431,0.003408
98279000,0.0324,0.013523,0.002678,0.000431,0.003526
98280000,0.0324,0.013523,0.002678,0.000431,0.003526
98281000,0.0324,0.013523,0.002678,0.000431,0.003291
98282000,0.0324,0.013523,0.002678,0.000431,0.003526
98283000,0.0324,0.013523,0.002678,0.000431,0.003291
98284000,0.0324,0.013523,0.002678,0.000431,0.003408
98285000,0.0324,0.013523,0.002678,0.000431,0.003291
98286000,0.0324,0.013523,0.002678,0.000431,0.003526
98287000,0.0324,0.013523,0.002678,0.000431,0.004819
98288000,0.0324,0.013523,0.002678,0.000431,0.002586
98289000,0.0324,0.013523,0.002678,0.000431,0.002468
98290000,0.0324,0.013523,0.002678,0.000431,0.002233
98291000,0.0324,0.013523,0.002678,0.000431,0.001645
98292000,0.0324,0.013523,0.002678,0.000431,0.001763
98293000,0.0324,0.013523,0.002678,0.000431,0.003643
98294000,0.0324,0.013523,0.002678,0.000431,0.000823
98295000,0.0324,0.013523,0.002678,0.000431,0.000823
98296000,0.0324,0.013523,0.002678,0.000431,0.000940
98297000,0.0324,0.013523,0.002678,0.000431,0.000940
98298000,0.0324,0.013523,0.002678,0.000431,0.000705
98299000,0.0324,0.013523,0.002678,0.000431,0.073220
98300000,0.0324,0.013523,0.002678,0.000431,0.665797
98301000,0.0324,0.013523,0.002678,0.000431,0.556496
98302000,0.0324,0.013523,0.002678,0.000431,0.154315
98303000,0.0324,0.013523,0.002678,0.000431,0.141857
98304000,0.0324,0.013523,0.002678,0.000431,0.606328
98305000,0.0324,0.013523,0.002678,0.000431,0.274781
98306000,0.0324,0.013523,0.002678,0.000431,0.294173
98307000,0.0324,0.013523,0.002678,0.000431,0.263498
98308000,0.0324,0.013523,0.002678,0.000431,0.146440
98309000,0.0324,0.013523,0.002678,0.000431,0.117528
98310000,0.0324,0.013523,0.002678,0.000431,0.327198
98311000,0.0324,0.013523,0.002678,0.000431,0.349059
98312000,0.0324,0.013523,0.002678,0.000431,0.137390
98313000,0.0324,0.013523,0.002678,0.000431,0.106363
98314000,0.0324,0.013523,0.002678,0.000431,0.103307
98315000,0.0324,0.013523,0.002678,0.000431,0.090027
98316000,0.0324,0.013523,0.002678,0.000431,0.083680
98317000,0.0324,0.013523,0.002678,0.000431,0.075923
98318000,0.0324,0.013523,0.002678,0.000431,0.058647
98319000,0.0324,0.013523,0.002678,0.000431,0.050302
98320000,0.0324,0.013523,0.002678,0.000431,0.049479
98321000,0.0324,0.013523,0.002678,0.000431,0.045601
98322000,0.0324,0.013523,0.002678,0.000431,0.050185
98323000,0.0324,0.013523,0.002678,0.000431,0.037491
98324000,0.0324,0.013523,0.002678,0.000431,0.037139
98325000,0.0324,0.013523,0.002678,0.000431,0.036081
98326000,0.0324,0.013523,0.002678,0.000431,0.032203
98327000,0.0324,0.013523,0.002678,0.000431,0.032320
98328000,0.0324,0.013523,0.002678,0.000431,0.030205
98329000,0.0324,0.013523,0.002678,0.000431,0.025621
98330000,0.0324,0.013523,0.002678,0.000431,0.024563
98331000,0.0324,0.013523,0.002678,0.000431,0.018099
98332000,0.0324,0.013523,0.002678,0.000431,0.014926
98333000,0.0324,0.013523,0.002678,0.000431,0.014456
98334000,0.0324,0.013523,0.002678,0.000431,0.019392
98335000,0.0324,0.013523,0.002678,0.000431,0.015631
98336000,0.0324,0.013523,0.002678,0.000431,0.009402
98337000,0.0324,0.013523,0.002678,0.000431,0.009872
98338000,0.0324,0.013523,0.002678,0.000431,0.011165
98339000,0.0324,0.013523,0.002678,0.000431,0.007757
98340000,0.0324,0.013523,0.002678,0.000431,0.014338
98341000,0.0324,0.013523,0.002678,0.000431,0.006111
98342000,0.0324,0.013523,0.002678,0.000431,0.005054
98343000,0.0324,0.013523,0.002678,0.000431,0.008697
98344000,0.0324,0.013523,0.002678,0.000431,0.003056
98345000,0.0324,0.013523,0.002678,0.000431,0.002821
98346000,0.0324,0.013523,0.002678,0.000431,0.002468
98347000,0.0324,0.013523,0.002678,0.000431,0.002938
98348000,0.0324,0.013523,0.002678,0.000431,0.002586
98349000,0.0324,0.013523,0.002678,0.000431,0.002703
98350000,0.0324,0.013523,0.002678,0.000431,0.002703
98351000,0.0324,0.013523,0.002678,0.000431,0.003643
98352000,0.0324,0.013523,0.002678,0.000431,0.002821
98353000,0.0324,0.013523,0.002678,0.000431,0.003173
98354000,0.0324,0.013523,0.002678,0.000431,0.000705
98355000,0.0324,0.013523,0.002678,0.000431,0.000940
98356000,0.0324,0.013523,0.002678,0.000431,0.000823
98357000,0.0324,0.013523,0.002678,0.000431,0.000705
98358000,0.0324,0.013523,0.002678,0.000431,0.000823
98359000,0.0324,0.013523,0.002678,0.000431,0.000940
98360000,0.0324,0.013523,0.002678,0.000431,0.222363
98361000,0.0324,0.013523,0.002678,0.000431,0.587523
98362000,0.0324,0.013523,0.002678,0.000431,0.483511
98363000,0.0324,0.013523,0.002678,0.000431,0.133982
98364000,0.0324,0.013523,0.002678,0.000431,0.132572
98365000,0.0324,0.013523,0.002678,0.000431,0.583645
98366000,0.0324,0.013523,0.002678,0.000431,0.218720
98367000,0.0324,0.013523,0.002678,0.000431,0.277014
98368000,0.0324,0.013523,0.002678,0.000431,0.245399
98369000,0.0324,0.013523,0.002678,0.000431,0.139388
98370000,0.0324,0.013523,0.002678,0.000431,0.174059
98371000,0.0324,0.013523,0.002678,0.000431,0.100604
98372000,0.0324,0.013523,0.002678,0.000431,0.446372
98373000,0.0324,0.013523,0.002678,0.000431,0.234821
98374000,0.0324,0.013523,0.002678,0.000431,0.141974
98375000,0.0324,0.013523,0.002678,0.000431,0.127988
98376000,0.0324,0.013523,0.002678,0.000431,0.116941
98377000,0.0324,0.013523,0.002678,0.000431,0.093787
98378000,0.0324,0.013523,0.002678,0.000431,0.094963
98379000,0.0324,0.013523,0.002678,0.000431,0.072632
98380000,0.0324,0.013523,0.002678,0.000431,0.064641
98381000,0.0324,0.013523,0.002678,0.000431,0.054533
98382000,0.0324,0.013523,0.002678,0.000431,0.049832
98383000,0.0324,0.013523,0.002678,0.000431,0.041370
98384000,0.0324,0.013523,0.002678,0.000431,0.037962
98385000,0.0324,0.013523,0.002678,0.000431,0.047129
98386000,0.0324,0.013523,0.002678,0.000431,0.029617
98387000,0.0324,0.013523,0.002678,0.000431,0.029735
98388000,0.0324,0.013523,0.002678,0.000431,0.032438
98389000,0.0324,0.013523,0.002678,0.000431,0.023976
98390000,0.0324,0.013523,0.002678,0.000431,0.026561
98391000,0.0324,0.013523,0.002678,0.000431,0.023153
98392000,0.0324,0.013523,0.002678,0.000431,0.021743
98393000,0.0324,0.013523,0.002678,0.000431,0.017982
98394000,0.0324,0.013523,0.002678,0.000431,0.017747
98395000,0.0324,0.013523,0.002678,0.000431,0.021038
98396000,0.0324,0.013523,0.002678,0.000431,0.016101
98397000,0.0324,0.013523,0.002678,0.000431,0.015396
98398000,0.0324,0.013523,0.002678,0.000431,0.017042
98399000,0.0324,0.013523,0.002678,0.000431,0.011518
98400000,0.0324,0.013523,0.002678,0.000431,0.013046
98401000,0.0324,0.013523,0.002678,0.000431,0.009050
98402000,0.0324,0.013523,0.002678,0.000431,0.008227
98403000,0.0324,0.013523,0.002678,0.000431,0.008462
98404000,0.0324,0.013523,0.002678,0.000431,0.004113
98405000,0.0324,0.013523,0.002678,0.000431,0.004466
98406000,0.0324,0.013523,0.002678,0.000431,0.008932
98407000,0.0324,0.013523,0.002678,0.000431,0.002351
98408000,0.0324,0.013523,0.002678,0.000431,0.002821
98409000,0.0324,0.013523,0.002678,0.000431,0.002233
98410000,0.0324,0.013523,0.002678,0.000431,0.002703
98411000,0.0324,0.013523,0.002678,0.000431,0.002586
98412000,0.0324,0.013523,0.002678,0.000431,0.002351
98413000,0.0324,0.013523,0.002678,0.000431,0.002703
98414000,0.0324,0.013523,0.002678,0.000431,0.002351
98415000,0.0324,0.013523,0.002678,0.000431,0.003996
98416000,0.0324,0.013523,0.002678,0.000431,0.003291
98417000,0.0324,0.013523,0.002678,0.000431,0.001645
98418000,0.0324,0.013523,0.002678,0.000431,0.001645
98419000,0.0324,0.013523,0.002678,0.000431,0.001645
98420000,0.0324,0.013523,0.002678,0.000431,0.001880
98421000,0.0324,0.013523,0.002678,0.000431,0.001410
98422000,0.0324,0.013523,0.002678,0.000431,0.001880
98423000,0.0324,0.013523,0.002678,0.000431,0.001645
98424000,0.0324,0.013523,0.002678,0.000431,0.001645
98425000,0.0324,0.013523,0.002678,0.000431,0.001528
98426000,0.0324,0.013523,0.002678,0.000431,0.001763
98427000,0.0324,0.013523,0.002678,0.000431,0.001528
98428000,0.0324,0.013523,0.002678,0.000431,0.003526
98429000,0.0324,0.013523,0.002678,0.000431,0.000823
98430000,0.0324,0.013523,0.002678,0.000431,0.000823
98431000,0.0324,0.013523,0.002678,0.000431,0.000705
98432000,0.0324,0.013523,0.002678,0.000431,0.000940
98433000,0.0324,0.013523,0.002678,0.000431,0.000705
98434000,0.0324,0.013523,0.002678,0.000431,0.000705
98435000,0.0324,0.013523,0.002678,0.000431,0.000940
98436000,0.0324,0.013523,0.002678,0.000431,0.000940
98437000,0.0324,0.013523,0.002678,0.000431,0.000705
98438000,0.0324,0.013523,0.002678,0.000431,0.000940
98439000,0.0324,0.013523,0.002678,0.000431,0.000705
98440000,0.0324,0.013523,0.002678,0.000431,0.000940
98441000,0.0324,0.013523,0.002678,0.000431,0.000940
98442000,0.0324,0.013523,0.002678,0.000431,0.000940
98443000,0.0324,0.013523,0.002678,0.000431,0.139623
98444000,0.0324,0.013523,0.002678,0.000431,0.584703
98445000,0.0324,0.013523,0.002678,0.000431,0.540982
98446000,0.0324,0.013523,0.002678,0.000431,0.138213
98447000,0.0324,0.013523,0.002678,0.000431,0.133042
98448000,0.0324,0.013523,0.002678,0.000431,0.592695
98449000,0.0324,0.013523,0.002678,0.000431,0.237760
98450000,0.0324,0.013523,0.002678,0.000431,0.275721
98451000,0.0324,0.013523,0.002678,0.000431,0.288414
98452000,0.0324,0.013523,0.002678,0.000431,0.150436
98453000,0.0324,0.013523,0.002678,0.000431,0.166655
98454000,0.0324,0.013523,0.002678,0.000431,0.126930
98455000,0.0324,0.013523,0.002678,0.000431,0.494676
98456000,0.0324,0.013523,0.002678,0.000431,0.204852
98457000,0.0324,0.013523,0.002678,0.000431,0.149613
98458000,0.0324,0.013523,0.002678,0.000431,0.136333
98459000,0.0324,0.013523,0.002678,0.000431,0.114120
98460000,0.0324,0.013523,0.002678,0.000431,0.108831
98461000,0.0324,0.013523,0.002678,0.000431,0.096021
98462000,0.0324,0.013523,0.002678,0.000431,0.077098
98463000,0.0324,0.013523,0.002678,0.000431,0.073925
98464000,0.0324,0.013523,0.002678,0.000431,0.070399
98465000,0.0324,0.013523,0.002678,0.000431,0.065581
98466000,0.0324,0.013523,0.002678,0.000431,0.059469
98467000,0.0324,0.013523,0.002678,0.000431,0.060645
98468000,0.0324,0.013523,0.002678,0.000431,0.046306
98469000,0.0324,0.013523,0.002678,0.000431,0.040665
98470000,0.0324,0.013523,0.002678,0.000431,0.041017
98471000,0.0324,0.013523,0.002678,0.000431,0.035141
98472000,0.0324,0.013523,0.002678,0.000431,0.031733
98473000,0.0324,0.013523,0.002678,0.000431,0.031615
98474000,0.0324,0.013523,0.002678,0.000431,0.029265
98475000,0.0324,0.013523,0.002678,0.000431,0.024681
98476000,0.0324,0.013523,0.002678,0.000431,0.025504
98477000,0.0324,0.013523,0.002678,0.000431,0.023388
98478000,0.0324,0.013523,0.002678,0.000431,0.021625
98479000,0.0324,0.013523,0.002678,0.000431,0.020685
98480000,0.0324,0.013523,0.002678,0.000431,0.023623
98481000,0.0324,0.013523,0.002678,0.000431,0.022095
98482000,0.0324,0.013523,0.002678,0.000431,0.019862
98483000,0.0324,0.013523,0.002678,0.000431,0.015396
98484000,0.0324,0.013523,0.002678,0.000431,0.019040
98485000,0.0324,0.013523,0.002678,0.000431,0.011635
98486000,0.0324,0.013523,0.002678,0.000431,0.012105
98487000,0.0324,0.013523,0.002678,0.000431,0.014221
98488000,0.0324,0.013523,0.002678,0.000431,0.011048
98489000,0.0324,0.013523,0.002678,0.000431,0.011283
98490000,0.0324,0.013523,0.002678,0.000431,0.017159
98491000,0.0324,0.013523,0.002678,0.000431,0.013516
98492000,0.0324,0.013523,0.002678,0.000431,0.007639
98493000,0.0324,0.013523,0.002678,0.000431,0.009520
98494000,0.0324,0.013523,0.002678,0.000431,0.005994
98495000,0.0324,0.013523,0.002678,0.000431,0.005054
98496000,0.0324,0.013523,0.002678,0.000431,0.005406
98497000,0.0324,0.013523,0.002678,0.000431,0.006229
98498000,0.0324,0.013523,0.002678,0.000431,0.004349
98499000,0.0324,0.013523,0.002678,0.000431,0.004113
98500000,0.0324,0.013523,0.002678,0.000431,0.005289
98501000,0.0324,0.013523,0.002678,0.000431,0.005054
98502000,0.0324,0.013523,0.002678,0.000431,0.003408
98503000,0.0324,0.013523,0.002678,0.000431,0.003291
98504000,0.0324,0.013523,0.002678,0.000431,0.003526
98505000,0.0324,0.013523,0.002678,0.000431,0.003291
98506000,0.0324,0.013523,0.002678,0.000431,0.003526
98507000,0.0324,0.013523,0.002678,0.000431,0.005171
98508000,0.0324,0.013523,0.002678,0.000431,0.002586
98509000,0.0324,0.013523,0.002678,0.000431,0.005641
98510000,0.0324,0.013523,0.002678,0.000431,0.001645
98511000,0.0324,0.013523,0.002678,0.000431,0.001763
98512000,0.0324,0.013523,0.002678,0.000431,0.001763
98513000,0.0324,0.013523,0.002678,0.000431,0.001763
98514000,0.0324,0.013523,0.002678,0.000431,0.001763
98515000,0.0324,0.013523,0.002678,0.000431,0.005171
98516000,0.0324,0.013523,0.002678,0.000431,0.000823
98517000,0.0324,0.013523,0.002678,0.000431,0.000823
98518000,0.0324,0.013523,0.002678,0.000431,0.000940
98519000,0.0324,0.013523,0.002678,0.000431,0.000823
98520000,0.0324,0.013523,0.002678,0.000431,0.000940
98521000,0.0324,0.013523,0.002678,0.000431,0.000823
98522000,0.0324,0.013523,0.002678,0.000431,0.000940
98523000,0.0324,0.013523,0.002678,0.000431,0.000823
98524000,0.0324,0.013523,0.002678,0.000431,0.000823
98525000,0.0324,0.013523,0.002678,0.000431,0.000940
98526000,0.0324,0.013523,0.002678,0.000431,0.000940
98527000,0.0324,0.013523,0.002678,0.000431,0.000823
98528000,0.0324,0.013523,0.002678,0.000431,0.000823
98529000,0.0324,0.013523,0.002678,0.000431,0.000940
98530000,0.0324,0.013523,0.002678,0.000431,0.000940
98531000,0.0324,0.013523,0.002678,0.000431,0.000705
98532000,0.0324,0.013523,0.002678,0.000431,0.000940
98533000,0.0324,0.013523,0.002678,0.000431,0.000940
98534000,0.0324,0.013523,0.002678,0.000431,0.000940
98535000,0.0324,0.013523,0.002678,0.000431,0.000705
98536000,0.0324,0.013523,0.002678,0.000431,0.000940
98537000,0.0324,0.013523,0.002678,0.000431,0.000940
98538000,0.0324,0.013523,0.002678,0.000431,0.000823
98539000,0.0324,0.013523,0.002678,0.000431,0.000823
98540000,0.0324,0.013523,0.002678,0.000431,0.000940
98541000,0.0324,0.013523,0.002678,0.000431,0.000940
98542000,0.0324,0.013523,0.002678,0.000431,0.000823
98543000,0.0324,0.013523,0.002678,0.000431,0.000823
98544000,0.0324,0.013523,0.002678,0.000431,0.000940
98545000,0.0324,0.013523,0.002678,0.000431,0.000823
98546000,0.0324,0.013523,0.002678,0.000431,0.000940
98547000,0.0324,0.013523,0.002678,0.000431,0.000823
98548000,0.0324,0.013523,0.002678,0.000431,0.000940
98549000,0.0324,0.013523,0.002678,0.000431,0.000823
98550000,0.0324,0.013523,0.002678,0.000431,0.000823
98551000,0.0324,0.013523,0.002678,0.000431,0.000940
98552000,0.0324,0.013523,0.002678,0.000431,0.000940
98553000,0.0324,0.013523,0.002678,0.000431,0.000940
98554000,0.0324,0.013523,0.002678,0.000431,0.000705
98555000,0.0324,0.013523,0.002678,0.000431,0.000940
98556000,0.0324,0.013523,0.002678,0.000431,0.000940
98557000,0.0324,0.013523,0.002678,0.000431,0.000823
98558000,0.0324,0.013523,0.002678,0.000431,0.000823
98559000,0.0324,0.013523,0.002678,0.000431,0.072750
98560000,0.0324,0.013523,0.002678,0.000431,0.639941
98561000,0.0324,0.013523,0.002678,0.000431,0.594340
98562000,0.0324,0.013523,0.002678,0.000431,0.140446
98563000,0.0324,0.013523,0.002678,0.000431,0.133982
98564000,0.0324,0.013523,0.002678,0.000431,0.596808
98565000,0.0324,0.013523,0.002678,0.000431,0.286886
98566000,0.0324,0.013523,0.002678,0.000431,0.244224
98567000,0.0324,0.013523,0.002678,0.000431,0.260913
98568000,0.0324,0.013523,0.002678,0.000431,0.146558
98569000,0.0324,0.013523,0.002678,0.000431,0.162894
98570000,0.0324,0.013523,0.002678,0.000431,0.166067
98571000,0.0324,0.013523,0.002678,0.000431,0.473286
98572000,0.0324,0.013523,0.002678,0.000431,0.200503
98573000,0.0324,0.013523,0.002678,0.000431,0.150671
98574000,0.0324,0.013523,0.002678,0.000431,0.140211
98575000,0.0324,0.013523,0.002678,0.000431,0.134805
98576000,0.0324,0.013523,0.002678,0.000431,0.111534
98577000,0.0324,0.013523,0.002678,0.000431,0.102602
98578000,0.0324,0.013523,0.002678,0.000431,0.084268
98579000,0.0324,0.013523,0.002678,0.000431,0.080507
98580000,0.0324,0.013523,0.002678,0.000431,0.058647
98581000,0.0324,0.013523,0.002678,0.000431,0.057706
98582000,0.0324,0.013523,0.002678,0.000431,0.048774
98583000,0.0324,0.013523,0.002678,0.000431,0.041487
98584000,0.0324,0.013523,0.002678,0.000431,0.043485
98585000,0.0324,0.013523,0.002678,0.000431,0.043720
98586000,0.0324,0.013523,0.002678,0.000431,0.033143
98587000,0.0324,0.013523,0.002678,0.000431,0.028442
98588000,0.0324,0.013523,0.002678,0.000431,0.026091
98589000,0.0324,0.013523,0.002678,0.000431,0.032320
98590000,0.0324,0.013523,0.002678,0.000431,0.018922
98591000,0.0324,0.013523,0.002678,0.000431,0.017982
98592000,0.0324,0.013523,0.002678,0.000431,0.013281
98593000,0.0324,0.013523,0.002678,0.000431,0.012105
98594000,0.0324,0.013523,0.002678,0.000431,0.017747
98595000,0.0324,0.013523,0.002678,0.000431,0.009402
98596000,0.0324,0.013523,0.002678,0.000431,0.012223
98597000,0.0324,0.013523,0.002678,0.000431,0.015044
98598000,0.0324,0.013523,0.002678,0.000431,0.008227
98599000,0.0324,0.013523,0.002678,0.000431,0.007522
98600000,0.0324,0.013523,0.002678,0.000431,0.003408
98601000,0.0324,0.013523,0.002678,0.000431,0.001880
98602000,0.0324,0.013523,0.002678,0.000431,0.001645
98603000,0.0324,0.013523,0.002678,0.000431,0.001645
98604000,0.0324,0.013523,0.002678,0.000431,0.001880
98605000,0.0324,0.013523,0.002678,0.000431,0.001528
98606000,0.0324,0.013523,0.002678,0.000431,0.001763
98607000,0.0324,0.013523,0.002678,0.000431,0.003056
98608000,0.0324,0.013523,0.002678,0.000431,0.002468
98609000,0.0324,0.013523,0.002678,0.000431,0.000823
98610000,0.0324,0.013523,0.002678,0.000431,0.000823
98611000,0.0324,0.013523,0.002678,0.000431,0.000940
98612000,0.0324,0.013523,0.002678,0.000431,0.001058
98613000,0.0324,0.013523,0.002678,0.000431,0.000823
98614000,0.0324,0.013523,0.002678,0.000431,0.000940
98615000,0.0324,0.013523,0.002678,0.000431,0.000940
98616000,0.0324,0.013523,0.002678,0.000431,0.000823
98617000,0.0324,0.013523,0.002678,0.000431,0.000823
98618000,0.0324,0.013523,0.002678,0.000431,0.000940
98619000,0.0324,0.013523,0.002678,0.000431,0.176645
98620000,0.0324,0.013523,0.002678,0.000431,0.604447
98621000,0.0324,0.013523,0.002678,0.000431,0.543685
98622000,0.0324,0.013523,0.002678,0.000431,0.139976
98623000,0.0324,0.013523,0.002678,0.000431,0.147615
98624000,0.0324,0.013523,0.002678,0.000431,0.626308
98625000,0.0324,0.013523,0.002678,0.000431,0.254566
98626000,0.0324,0.013523,0.002678,0.000431,0.265731
98627000,0.0324,0.013523,0.002678,0.000431,0.232588
98628000,0.0324,0.013523,0.002678,0.000431,0.148556
98629000,0.0324,0.013523,0.002678,0.000431,0.140446
98630000,0.0324,0.013523,0.002678,0.000431,0.237524
98631000,0.0324,0.013523,0.002678,0.000431,0.450486
98632000,0.0324,0.013523,0.002678,0.000431,0.181699
98633000,0.0324,0.013523,0.002678,0.000431,0.172649
98634000,0.0324,0.013523,0.002678,0.000431,0.154902
98635000,0.0324,0.013523,0.002678,0.000431,0.135863
98636000,0.0324,0.013523,0.002678,0.000431,0.122817
98637000,0.0324,0.013523,0.002678,0.000431,0.105893
98638000,0.0324,0.013523,0.002678,0.000431,0.103190
98639000,0.0324,0.013523,0.002678,0.000431,0.086266
98640000,0.0324,0.013523,0.002678,0.000431,0.090732
98641000,0.0324,0.013523,0.002678,0.000431,0.084855
98642000,0.0324,0.013523,0.002678,0.000431,0.068401
98643000,0.0324,0.013523,0.002678,0.000431,0.052418
98644000,0.0324,0.013523,0.002678,0.000431,0.054886
98645000,0.0324,0.013523,0.002678,0.000431,0.053828
98646000,0.0324,0.013523,0.002678,0.000431,0.044661
98647000,0.0324,0.013523,0.002678,0.000431,0.034083
98648000,0.0324,0.013523,0.002678,0.000431,0.034083
98649000,0.0324,0.013523,0.002678,0.000431,0.037609
98650000,0.0324,0.013523,0.002678,0.000431,0.037962
98651000,0.0324,0.013523,0.002678,0.000431,0.025386
98652000,0.0324,0.013523,0.002678,0.000431,0.024916
98653000,0.0324,0.013523,0.002678,0.000431,0.019627
98654000,0.0324,0.013523,0.002678,0.000431,0.021273
98655000,0.0324,0.013523,0.002678,0.000431,0.014691
98656000,0.0324,0.013523,0.002678,0.000431,0.008462
98657000,0.0324,0.013523,0.002678,0.000431,0.012458
98658000,0.0324,0.013523,0.002678,0.000431,0.008815
98659000,0.0324,0.013523,0.002678,0.000431,0.006111
98660000,0.0324,0.013523,0.002678,0.000431,0.005289
98661000,0.0324,0.013523,0.002678,0.000431,0.009872
98662000,0.0324,0.013523,0.002678,0.000431,0.004936
98663000,0.0324,0.013523,0.002678,0.000431,0.003526
98664000,0.0324,0.013523,0.002678,0.000431,0.003291
98665000,0.0324,0.013523,0.002678,0.000431,0.002821
98666000,0.0324,0.013523,0.002678,0.000431,0.003173
98667000,0.0324,0.013523,0.002678,0.000431,0.002468
98668000,0.0324,0.013523,0.002678,0.000431,0.002468
98669000,0.0324,0.013523,0.002678,0.000431,0.002703
98670000,0.0324,0.013523,0.002678,0.000431,0.001410
98671000,0.0324,0.013523,0.002678,0.000431,0.001880
98672000,0.0324,0.013523,0.002678,0.000431,0.004701
98673000,0.0324,0.013523,0.002678,0.000431,0.000823
98674000,0.0324,0.013523,0.002678,0.000431,0.000823
98675000,0.0324,0.013523,0.002678,0.000431,0.000823
98676000,0.0324,0.013523,0.002678,0.000431,0.000823
98677000,0.0324,0.013523,0.002678,0.000431,0.000823
98678000,0.0324,0.013523,0.002678,0.000431,0.000940
98679000,0.0324,0.013523,0.002678,0.000431,0.000705
98680000,0.0324,0.013523,0.002678,0.000431,0.000823
98681000,0.0324,0.013523,0.002678,0.000431,0.000940
98682000,0.0324,0.013523,0.002678,0.000431,0.000823
98683000,0.0324,0.013523,0.002678,0.000431,0.000823
98684000,0.0324,0.013523,0.002678,0.000431,0.001058
98685000,0.0324,0.013523,0.002678,0.000431,0.115883
98686000,0.0324,0.013523,0.002678,0.000431,0.676375
98687000,0.0324,0.013523,0.002678,0.000431,0.532873
98688000,0.0324,0.013523,0.002678,0.000431,0.139271
98689000,0.0324,0.013523,0.002678,0.000431,0.136803
98690000,0.0324,0.013523,0.002678,0.000431,0.604800
98691000,0.0324,0.013523,0.002678,0.000431,0.264438
98692000,0.0324,0.013523,0.002678,0.000431,0.286651
98693000,0.0324,0.013523,0.002678,0.000431,0.232353
98694000,0.0324,0.013523,0.002678,0.000431,0.143854
98695000,0.0324,0.013523,0.002678,0.000431,0.125168
98696000,0.0324,0.013523,0.002678,0.000431,0.329314
98697000,0.0324,0.013523,0.002678,0.000431,0.415815
98698000,0.0324,0.013523,0.002678,0.000431,0.195097
98699000,0.0324,0.013523,0.002678,0.000431,0.166772
98700000,0.0324,0.013523,0.002678,0.000431,0.145265
98701000,0.0324,0.013523,0.002678,0.000431,0.122934
98702000,0.0324,0.013523,0.002678,0.000431,0.118939
98703000,0.0324,0.013523,0.002678,0.000431,0.106245
98704000,0.0324,0.013523,0.002678,0.000431,0.096373
98705000,0.0324,0.013523,0.002678,0.000431,0.095550
98706000,0.0324,0.013523,0.002678,0.000431,0.084620
98707000,0.0324,0.013523,0.002678,0.000431,0.062290
98708000,0.0324,0.013523,0.002678,0.000431,0.059469
98709000,0.0324,0.013523,0.002678,0.000431,0.044073
98710000,0.0324,0.013523,0.002678,0.000431,0.036434
98711000,0.0324,0.013523,0.002678,0.000431,0.037962
98712000,0.0324,0.013523,0.002678,0.000431,0.033496
98713000,0.0324,0.013523,0.002678,0.000431,0.032320
98714000,0.0324,0.013523,0.002678,0.000431,0.032908
98715000,0.0324,0.013523,0.002678,0.000431,0.024798
98716000,0.0324,0.013523,0.002678,0.000431,0.026091
98717000,0.0324,0.013523,0.002678,0.000431,0.024563
98718000,0.0324,0.013523,0.002678,0.000431,0.025151
98719000,0.0324,0.013523,0.002678,0.000431,0.019980
98720000,0.0324,0.013523,0.002678,0.000431,0.015514
98721000,0.0324,0.013523,0.002678,0.000431,0.018922
98722000,0.0324,0.013523,0.002678,0.000431,0.018569
98723000,0.0324,0.013523,0.002678,0.000431,0.013163
98724000,0.0324,0.013523,0.002678,0.000431,0.011048
98725000,0.0324,0.013523,0.002678,0.000431,0.012576
98726000,0.0324,0.013523,0.002678,0.000431,0.010695
98727000,0.0324,0.013523,0.002678,0.000431,0.007287
98728000,0.0324,0.013523,0.002678,0.000431,0.005054
98729000,0.0324,0.013523,0.002678,0.000431,0.004701
98730000,0.0324,0.013523,0.002678,0.000431,0.004819
98731000,0.0324,0.013523,0.002678,0.000431,0.005054
98732000,0.0324,0.013523,0.002678,0.000431,0.008580
98733000,0.0324,0.013523,0.002678,0.000431,0.004113
98734000,0.0324,0.013523,0.002678,0.000431,0.003761
98735000,0.0324,0.013523,0.002678,0.000431,0.005171
98736000,0.0324,0.013523,0.002678,0.000431,0.002586
98737000,0.0324,0.013523,0.002678,0.000431,0.002468
98738000,0.0324,0.013523,0.002678,0.000431,0.002468
98739000,0.0324,0.013523,0.002678,0.000431,0.002468
98740000,0.0324,0.013523,0.002678,0.000431,0.002586
98741000,0.0324,0.013523,0.002678,0.000431,0.002351
98742000,0.0324,0.013523,0.002678,0.000431,0.002586
98743000,0.0324,0.013523,0.002678,0.000431,0.002351
98744000,0.0324,0.013523,0.002678,0.000431,0.002703
98745000,0.0324,0.013523,0.002678,0.000431,0.002351
98746000,0.0324,0.013523,0.002678,0.000431,0.002468
98747000,0.0324,0.013523,0.002678,0.000431,0.002468
98748000,0.0324,0.013523,0.002678,0.000431,0.002703
98749000,0.0324,0.013523,0.002678,0.000431,0.002351
98750000,0.0324,0.013523,0.002678,0.000431,0.002586
98751000,0.0324,0.013523,0.002678,0.000431,0.002586
98752000,0.0324,0.013523,0.002678,0.000431,0.002468
98753000,0.0324,0.013523,0.002678,0.000431,0.002703
98754000,0.0324,0.013523,0.002678,0.000431,0.002116
98755000,0.0324,0.013523,0.002678,0.000431,0.002821
98756000,0.0324,0.013523,0.002678,0.000431,0.001880
98757000,0.0324,0.013523,0.002678,0.000431,0.001528
98758000,0.0324,0.013523,0.002678,0.000431,0.003408
98759000,0.0324,0.013523,0.002678,0.000431,0.002586
98760000,0.0324,0.013523,0.002678,0.000431,0.000940
98761000,0.0324,0.013523,0.002678,0.000431,0.000823
98762000,0.0324,0.013523,0.002678,0.000431,0.000823
98763000,0.0324,0.013523,0.002678,0.000431,0.000823
98764000,0.0324,0.013523,0.002678,0.000431,0.000823
98765000,0.0324,0.013523,0.002678,0.000431,0.000940
98766000,0.0324,0.013523,0.002678,0.000431,0.000823
98767000,0.0324,0.013523,0.002678,0.000431,0.000823
98768000,0.0324,0.013523,0.002678,0.000431,0.000823
98769000,0.0324,0.013523,0.002678,0.000431,0.000823
98770000,0.0324,0.013523,0.002678,0.000431,0.000823
98771000,0.0324,0.013523,0.002678,0.000431,0.000823
98772000,0.0324,0.013523,0.002678,0.000431,0.000940
98773000,0.0324,0.013523,0.002678,0.000431,0.000705
98774000,0.0324,0.013523,0.002678,0.000431,0.000823
98775000,0.0324,0.013523,0.002678,0.000431,0.000940
98776000,0.0324,0.013523,0.002678,0.000431,0.000823
98777000,0.0324,0.013523,0.002678,0.000431,0.000823
98778000,0.0324,0.013523,0.002678,0.000431,0.000823
98779000,0.0324,0.013523,0.002678,0.000431,0.000705
98780000,0.0324,0.013523,0.002678,0.000431,0.000940
98781000,0.0324,0.013523,0.002678,0.000431,0.000940
98782000,0.0324,0.013523,0.002678,0.000431,0.000705
98783000,0.0324,0.013523,0.002678,0.000431,0.000940
98784000,0.0324,0.013523,0.002678,0.000431,0.000705
98785000,0.0324,0.013523,0.002678,0.000431,0.000940
98786000,0.0324,0.013523,0.002678,0.000431,0.000940
98787000,0.0324,0.013523,0.002678,0.000431,0.000705
98788000,0.0324,0.013523,0.002678,0.000431,0.000940
98789000,0.0324,0.013523,0.002678,0.000431,0.000705
98790000,0.0324,0.013523,0.002678,0.000431,0.000940
98791000,0.0324,0.013523,0.002678,0.000431,0.000823
98792000,0.0324,0.013523,0.002678,0.000431,0.000823
98793000,0.0324,0.013523,0.002678,0.000431,0.000823
98794000,0.0324,0.013523,0.002678,0.000431,0.000823
98795000,0.0324,0.013523,0.002678,0.000431,0.000940
98796000,0.0324,0.013523,0.002678,0.000431,0.000705
98797000,0.0324,0.013523,0.002678,0.000431,0.000940
98798000,0.0324,0.013523,0.002678,0.000431,0.000823
98799000,0.0324,0.013523,0.002678,0.000431,0.000823
98800000,0.0324,0.013523,0.002678,0.000431,0.000705
98801000,0.0324,0.013523,0.002678,0.000431,0.000940
98802000,0.0324,0.013523,0.002678,0.000431,0.000823
98803000,0.0324,0.013523,0.002678,0.000431,0.000823
98804000,0.0324,0.013523,0.002678,0.000431,0.000823
98805000,0.0324,0.013523,0.002678,0.000431,0.000823
98806000,0.0324,0.013523,0.002678,0.000431,0.000823
98807000,0.0324,0.013523,0.002678,0.000431,0.000823
98808000,0.0324,0.013523,0.002678,0.000431,0.000705
98809000,0.0324,0.013523,0.002678,0.000431,0.240228
98810000,0.0324,0.013523,0.002678,0.000431,0.672144
98811000,0.0324,0.013523,0.002678,0.000431,0.480925
98812000,0.0324,0.013523,0.002678,0.000431,0.136098
98813000,0.0324,0.013523,0.002678,0.000431,0.143854
98814000,0.0324,0.013523,0.002678,0.000431,0.601509
98815000,0.0324,0.013523,0.002678,0.000431,0.233176
98816000,0.0324,0.013523,0.002678,0.000431,0.348001
98817000,0.0324,0.013523,0.002678,0.000431,0.218367
98818000,0.0324,0.013523,0.002678,0.000431,0.155020
98819000,0.0324,0.013523,0.002678,0.000431,0.101309
98820000,0.0324,0.013523,0.002678,0.000431,0.426627
98821000,0.0324,0.013523,0.002678,0.000431,0.310980
98822000,0.0324,0.013523,0.002678,0.000431,0.180523
98823000,0.0324,0.013523,0.002678,0.000431,0.144677
98824000,0.0324,0.013523,0.002678,0.000431,0.127988
98825000,0.0324,0.013523,0.002678,0.000431,0.108479
98826000,0.0324,0.013523,0.002678,0.000431,0.095433
98827000,0.0324,0.013523,0.002678,0.000431,0.079567
98828000,0.0324,0.013523,0.002678,0.000431,0.065816
98829000,0.0324,0.013523,0.002678,0.000431,0.057354
98830000,0.0324,0.013523,0.002678,0.000431,0.048657
98831000,0.0324,0.013523,0.002678,0.000431,0.033378
98832000,0.0324,0.013523,0.002678,0.000431,0.037021
98833000,0.0324,0.013523,0.002678,0.000431,0.035023
98834000,0.0324,0.013523,0.002678,0.000431,0.029852
98835000,0.0324,0.013523,0.002678,0.000431,0.023623
98836000,0.0324,0.013523,0.002678,0.000431,0.027384
98837000,0.0324,0.013523,0.002678,0.000431,0.019627
98838000,0.0324,0.013523,0.002678,0.000431,0.026796
98839000,0.0324,0.013523,0.002678,0.000431,0.014221
98840000,0.0324,0.013523,0.002678,0.000431,0.010578
98841000,0.0324,0.013523,0.002678,0.000431,0.013163
98842000,0.0324,0.013523,0.002678,0.000431,0.010578
98843000,0.0324,0.013523,0.002678,0.000431,0.005289
98844000,0.0324,0.013523,0.002678,0.000431,0.005289
98845000,0.0324,0.013523,0.002678,0.000431,0.004819
98846000,0.0324,0.013523,0.002678,0.000431,0.005054
98847000,0.0324,0.013523,0.002678,0.000431,0.005524
98848000,0.0324,0.013523,0.002678,0.000431,0.007522
98849000,0.0324,0.013523,0.002678,0.000431,0.007052
98850000,0.0324,0.013523,0.002678,0.000431,0.003643
98851000,0.0324,0.013523,0.002678,0.000431,0.005054
98852000,0.0324,0.013523,0.002678,0.000431,0.002703
98853000,0.0324,0.013523,0.002678,0.000431,0.003878
98854000,0.0324,0.013523,0.002678,0.000431,0.001645
98855000,0.0324,0.013523,0.002678,0.000431,0.001645
98856000,0.0324,0.013523,0.002678,0.000431,0.002703
98857000,0.0324,0.013523,0.002678,0.000431,0.000940
98858000,0.0324,0.013523,0.002678,0.000431,0.000940
98859000,0.0324,0.013523,0.002678,0.000431,0.000705
98860000,0.0324,0.013523,0.002678,0.000431,0.013868
98861000,0.0324,0.013523,0.002678,0.000431,0.645817
98862000,0.0324,0.013523,0.002678,0.000431,0.592107
98863000,0.0324,0.013523,0.002678,0.000431,0.155842
98864000,0.0324,0.013523,0.002678,0.000431,0.136568
98865000,0.0324,0.013523,0.002678,0.000431,0.528289
98866000,0.0324,0.013523,0.002678,0.000431,0.281950
98867000,0.0324,0.013523,0.002678,0.000431,0.258680
98868000,0.0324,0.013523,0.002678,0.000431,0.313565
98869000,0.0324,0.013523,0.002678,0.000431,0.145500
98870000,0.0324,0.013523,0.002678,0.000431,0.161954
98871000,0.0324,0.013523,0.002678,0.000431,0.105540
98872000,0.0324,0.013523,0.002678,0.000431,0.471641
98873000,0.0324,0.013523,0.002678,0.000431,0.188398
98874000,0.0324,0.013523,0.002678,0.000431,0.118233
98875000,0.0324,0.013523,0.002678,0.000431,0.112004
98876000,0.0324,0.013523,0.002678,0.000431,0.101779
98877000,0.0324,0.013523,0.002678,0.000431,0.103190
98878000,0.0324,0.013523,0.002678,0.000431,0.086853
98879000,0.0324,0.013523,0.002678,0.000431,0.079684
98880000,0.0324,0.013523,0.002678,0.000431,0.069694
98881000,0.0324,0.013523,0.002678,0.000431,0.066874
98882000,0.0324,0.013523,0.002678,0.000431,0.050890
98883000,0.0324,0.013523,0.002678,0.000431,0.045718
98884000,0.0324,0.013523,0.002678,0.000431,0.053828
98885000,0.0324,0.013523,0.002678,0.000431,0.040430
98886000,0.0324,0.013523,0.002678,0.000431,0.035023
98887000,0.0324,0.013523,0.002678,0.000431,0.027267
98888000,0.0324,0.013523,0.002678,0.000431,0.026679
98889000,0.0324,0.013523,0.002678,0.000431,0.026091
98890000,0.0324,0.013523,0.002678,0.000431,0.021978
98891000,0.0324,0.013523,0.002678,0.000431,0.023036
98892000,0.0324,0.013523,0.002678,0.000431,0.020215
98893000,0.0324,0.013523,0.002678,0.000431,0.014221
98894000,0.0324,0.013523,0.002678,0.000431,0.011635
98895000,0.0324,0.013523,0.002678,0.000431,0.011753
98896000,0.0324,0.013523,0.002678,0.000431,0.011870
98897000,0.0324,0.013523,0.002678,0.000431,0.017629
98898000,0.0324,0.013523,0.002678,0.000431,0.010225
98899000,0.0324,0.013523,0.002678,0.000431,0.007757
98900000,0.0324,0.013523,0.002678,0.000431,0.007757
98901000,0.0324,0.013523,0.002678,0.000431,0.005876
98902000,0.0324,0.013523,0.002678,0.000431,0.005524
98903000,0.0324,0.013523,0.002678,0.000431,0.005759
98904000,0.0324,0.013523,0.002678,0.000431,0.005641
98905000,0.0324,0.013523,0.002678,0.000431,0.005876
98906000,0.0324,0.013523,0.002678,0.000431,0.005289
98907000,0.0324,0.013523,0.002678,0.000431,0.008109
98908000,0.0324,0.013523,0.002678,0.000431,0.004466
98909000,0.0324,0.013523,0.002678,0.000431,0.005406
98910000,0.0324,0.013523,0.002678,0.000431,0.004231
98911000,0.0324,0.013523,0.002678,0.000431,0.005994
98912000,0.0324,0.013523,0.002678,0.000431,0.005406
98913000,0.0324,0.013523,0.002678,0.000431,0.003291
98914000,0.0324,0.013523,0.002678,0.000431,0.002821
98915000,0.0324,0.013523,0.002678,0.000431,0.003173
98916000,0.0324,0.013523,0.002678,0.000431,0.003056
98917000,0.0324,0.013523,0.002678,0.000431,0.002821
98918000,0.0324,0.013523,0.002678,0.000431,0.003173
98919000,0.0324,0.013523,0.002678,0.000431,0.002821
98920000,0.0324,0.013523,0.002678,0.000431,0.002703
98921000,0.0324,0.013523,0.002678,0.000431,0.002821
98922000,0.0324,0.013523,0.002678,0.000431,0.003173
98923000,0.0324,0.013523,0.002678,0.000431,0.002821
98924000,0.0324,0.013523,0.002678,0.000431,0.001645
98925000,0.0324,0.013523,0.002678,0.000431,0.001293
98926000,0.0324,0.013523,0.002678,0.000431,0.001763
98927000,0.0324,0.013523,0.002678,0.000431,0.001175
98928000,0.0324,0.013523,0.002678,0.000431,0.001880
98929000,0.0324,0.013523,0.002678,0.000431,0.001528
98930000,0.0324,0.013523,0.002678,0.000431,0.001528
98931000,0.0324,0.013523,0.002678,0.000431,0.001410
98932000,0.0324,0.013523,0.002678,0.000431,0.000823
98933000,0.0324,0.013523,0.002678,0.000431,0.000940
98934000,0.0324,0.013523,0.002678,0.000431,0.000823
98935000,0.0324,0.013523,0.002678,0.000431,0.000823
98936000,0.0324,0.013523,0.002678,0.000431,0.000940
98937000,0.0324,0.013523,0.002678,0.000431,0.000705
98938000,0.0324,0.013523,0.002678,0.000431,0.215782
98939000,0.0324,0.013523,0.002678,0.000431,0.601392
98940000,0.0324,0.013523,0.002678,0.000431,0.450368
98941000,0.0324,0.013523,0.002678,0.000431,0.139859
98942000,0.0324,0.013523,0.002678,0.000431,0.166655
98943000,0.0324,0.013523,0.002678,0.000431,0.618551
98944000,0.0324,0.013523,0.002678,0.000431,0.239640
98945000,0.0324,0.013523,0.002678,0.000431,0.328726
98946000,0.0324,0.013523,0.002678,0.000431,0.230238
98947000,0.0324,0.013523,0.002678,0.000431,0.155137
98948000,0.0324,0.013523,0.002678,0.000431,0.118703
98949000,0.0324,0.013523,0.002678,0.000431,0.324025
98950000,0.0324,0.013523,0.002678,0.000431,0.328609
98951000,0.0324,0.013523,0.002678,0.000431,0.125050
98952000,0.0324,0.013523,0.002678,0.000431,0.117176
98953000,0.0324,0.013523,0.002678,0.000431,0.108243
98954000,0.0324,0.013523,0.002678,0.000431,0.081917
98955000,0.0324,0.013523,0.002678,0.000431,0.077804
98956000,0.0324,0.013523,0.002678,0.000431,0.067579
98957000,0.0324,0.013523,0.002678,0.000431,0.061232
98958000,0.0324,0.013523,0.002678,0.000431,0.065463
98959000,0.0324,0.013523,0.002678,0.000431,0.057119
98960000,0.0324,0.013523,0.002678,0.000431,0.053593
98961000,0.0324,0.013523,0.002678,0.000431,0.048422
98962000,0.0324,0.013523,0.002678,0.000431,0.042780
98963000,0.0324,0.013523,0.002678,0.000431,0.043838
98964000,0.0324,0.013523,0.002678,0.000431,0.035141
98965000,0.0324,0.013523,0.002678,0.000431,0.033848
98966000,0.0324,0.013523,0.002678,0.000431,0.031615
98967000,0.0324,0.013523,0.002678,0.000431,0.025386
98968000,0.0324,0.013523,0.002678,0.000431,0.021860
98969000,0.0324,0.013523,0.002678,0.000431,0.023388
98970000,0.0324,0.013523,0.002678,0.000431,0.019862
98971000,0.0324,0.013523,0.002678,0.000431,0.019040
98972000,0.0324,0.013523,0.002678,0.000431,0.018569
98973000,0.0324,0.013523,0.002678,0.000431,0.017512
98974000,0.0324,0.013523,0.002678,0.000431,0.017042
98975000,0.0324,0.013523,0.002678,0.000431,0.018217
98976000,0.0324,0.013523,0.002678,0.000431,0.011870
98977000,0.0324,0.013523,0.002678,0.000431,0.018217
98978000,0.0324,0.013523,0.002678,0.000431,0.010813
98979000,0.0324,0.013523,0.002678,0.000431,0.010695
98980000,0.0324,0.013523,0.002678,0.000431,0.012223
98981000,0.0324,0.013523,0.002678,0.000431,0.009755
98982000,0.0324,0.013523,0.002678,0.000431,0.011048
98983000,0.0324,0.013523,0.002678,0.000431,0.010107
98984000,0.0324,0.013523,0.002678,0.000431,0.006464
98985000,0.0324,0.013523,0.002678,0.000431,0.006347
98986000,0.0324,0.013523,0.002678,0.000431,0.006699
98987000,0.0324,0.013523,0.002678,0.000431,0.009990
98988000,0.0324,0.013523,0.002678,0.000431,0.005054
98989000,0.0324,0.013523,0.002678,0.000431,0.004936
98990000,0.0324,0.013523,0.002678,0.000431,0.004936
98991000,0.0324,0.013523,0.002678,0.000431,0.004936
98992000,0.0324,0.013523,0.002678,0.000431,0.006347
98993000,0.0324,0.013523,0.002678,0.000431,0.005171
98994000,0.0324,0.013523,0.002678,0.000431,0.004701
98995000,0.0324,0.013523,0.002678,0.000431,0.003408
98996000,0.0324,0.013523,0.002678,0.000431,0.003408
98997000,0.0324,0.013523,0.002678,0.000431,0.003056
98998000,0.0324,0.013523,0.002678,0.000431,0.003291
98999000,0.0324,0.013523,0.002678,0.000431,0.003291
