Cycle,Area(mm^2),PeakDynamic(W),SubthresholdLeakage(W),GateLeakage(W),RunTimeDynamic(W)
99000000,0.0324,0.013523,0.002678,0.000431,0.003173
99001000,0.0324,0.013523,0.002678,0.000431,0.003291
99002000,0.0324,0.013523,0.002678,0.000431,0.003526
99003000,0.0324,0.013523,0.002678,0.000431,0.005759
99004000,0.0324,0.013523,0.002678,0.000431,0.002468
99005000,0.0324,0.013523,0.002678,0.000431,0.076393
99006000,0.0324,0.013523,0.002678,0.000431,0.598924
99007000,0.0324,0.013523,0.002678,0.000431,0.565663
99008000,0.0324,0.013523,0.002678,0.000431,0.133982
99009000,0.0324,0.013523,0.002678,0.000431,0.132102
99010000,0.0324,0.013523,0.002678,0.000431,0.569424
99011000,0.0324,0.013523,0.002678,0.000431,0.241755
99012000,0.0324,0.013523,0.002678,0.000431,0.300167
99013000,0.0324,0.013523,0.002678,0.000431,0.251393
99014000,0.0324,0.013523,0.002678,0.000431,0.136920
99015000,0.0324,0.013523,0.002678,0.000431,0.174294
99016000,0.0324,0.013523,0.002678,0.000431,0.102014
99017000,0.0324,0.013523,0.002678,0.000431,0.474344
99018000,0.0324,0.013523,0.002678,0.000431,0.255036
99019000,0.0324,0.013523,0.002678,0.000431,0.170181
99020000,0.0324,0.013523,0.002678,0.000431,0.148673
99021000,0.0324,0.013523,0.002678,0.000431,0.126460
99022000,0.0324,0.013523,0.002678,0.000431,0.111064
99023000,0.0324,0.013523,0.002678,0.000431,0.099546
99024000,0.0324,0.013523,0.002678,0.000431,0.082505
99025000,0.0324,0.013523,0.002678,0.000431,0.072162
99026000,0.0324,0.013523,0.002678,0.000431,0.061702
99027000,0.0324,0.013523,0.002678,0.000431,0.062172
99028000,0.0324,0.013523,0.002678,0.000431,0.052418
99029000,0.0324,0.013523,0.002678,0.000431,0.048187
99030000,0.0324,0.013523,0.002678,0.000431,0.052065
99031000,0.0324,0.013523,0.002678,0.000431,0.033848
99032000,0.0324,0.013523,0.002678,0.000431,0.030557
99033000,0.0324,0.013523,0.002678,0.000431,0.034671
99034000,0.0324,0.013523,0.002678,0.000431,0.035258
99035000,0.0324,0.013523,0.002678,0.000431,0.034788
99036000,0.0324,0.013523,0.002678,0.000431,0.022683
99037000,0.0324,0.013523,0.002678,0.000431,0.021390
99038000,0.0324,0.013523,0.002678,0.000431,0.019392
99039000,0.0324,0.013523,0.002678,0.000431,0.020685
99040000,0.0324,0.013523,0.002678,0.000431,0.019980
99041000,0.0324,0.013523,0.002678,0.000431,0.018687
99042000,0.0324,0.013523,0.002678,0.000431,0.016924
99043000,0.0324,0.013523,0.002678,0.000431,0.009285
99044000,0.0324,0.013523,0.002678,0.000431,0.012928
99045000,0.0324,0.013523,0.002678,0.000431,0.009050
99046000,0.0324,0.013523,0.002678,0.000431,0.007992
99047000,0.0324,0.013523,0.002678,0.000431,0.009637
99048000,0.0324,0.013523,0.002678,0.000431,0.007052
99049000,0.0324,0.013523,0.002678,0.000431,0.007757
99050000,0.0324,0.013523,0.002678,0.000431,0.007639
99051000,0.0324,0.013523,0.002678,0.000431,0.007522
99052000,0.0324,0.013523,0.002678,0.000431,0.007287
99053000,0.0324,0.013523,0.002678,0.000431,0.007757
99054000,0.0324,0.013523,0.002678,0.000431,0.007404
99055000,0.0324,0.013523,0.002678,0.000431,0.007404
99056000,0.0324,0.013523,0.002678,0.000431,0.007169
99057000,0.0324,0.013523,0.002678,0.000431,0.006817
99058000,0.0324,0.013523,0.002678,0.000431,0.007992
99059000,0.0324,0.013523,0.002678,0.000431,0.005406
99060000,0.0324,0.013523,0.002678,0.000431,0.005171
99061000,0.0324,0.013523,0.002678,0.000431,0.005171
99062000,0.0324,0.013523,0.002678,0.000431,0.005171
99063000,0.0324,0.013523,0.002678,0.000431,0.005289
99064000,0.0324,0.013523,0.002678,0.000431,0.005289
99065000,0.0324,0.013523,0.002678,0.000431,0.005054
99066000,0.0324,0.013523,0.002678,0.000431,0.004936
99067000,0.0324,0.013523,0.002678,0.000431,0.005406
99068000,0.0324,0.013523,0.002678,0.000431,0.005171
99069000,0.0324,0.013523,0.002678,0.000431,0.005171
99070000,0.0324,0.013523,0.002678,0.000431,0.005054
99071000,0.0324,0.013523,0.002678,0.000431,0.005289
99072000,0.0324,0.013523,0.002678,0.000431,0.005054
99073000,0.0324,0.013523,0.002678,0.000431,0.005171
99074000,0.0324,0.013523,0.002678,0.000431,0.007522
99075000,0.0324,0.013523,0.002678,0.000431,0.005171
99076000,0.0324,0.013523,0.002678,0.000431,0.004584
99077000,0.0324,0.013523,0.002678,0.000431,0.003408
99078000,0.0324,0.013523,0.002678,0.000431,0.003408
99079000,0.0324,0.013523,0.002678,0.000431,0.003643
99080000,0.0324,0.013523,0.002678,0.000431,0.003526
99081000,0.0324,0.013523,0.002678,0.000431,0.003408
99082000,0.0324,0.013523,0.002678,0.000431,0.003408
99083000,0.0324,0.013523,0.002678,0.000431,0.003643
99084000,0.0324,0.013523,0.002678,0.000431,0.003291
99085000,0.0324,0.013523,0.002678,0.000431,0.003526
99086000,0.0324,0.013523,0.002678,0.000431,0.003526
99087000,0.0324,0.013523,0.002678,0.000431,0.004701
99088000,0.0324,0.013523,0.002678,0.000431,0.002351
99089000,0.0324,0.013523,0.002678,0.000431,0.002703
99090000,0.0324,0.013523,0.002678,0.000431,0.002703
99091000,0.0324,0.013523,0.002678,0.000431,0.002703
99092000,0.0324,0.013523,0.002678,0.000431,0.002468
99093000,0.0324,0.013523,0.002678,0.000431,0.002586
99094000,0.0324,0.013523,0.002678,0.000431,0.005406
99095000,0.0324,0.013523,0.002678,0.000431,0.000940
99096000,0.0324,0.013523,0.002678,0.000431,0.000823
99097000,0.0324,0.013523,0.002678,0.000431,0.000823
99098000,0.0324,0.013523,0.002678,0.000431,0.000940
99099000,0.0324,0.013523,0.002678,0.000431,0.000823
99100000,0.0324,0.013523,0.002678,0.000431,0.000940
99101000,0.0324,0.013523,0.002678,0.000431,0.000823
99102000,0.0324,0.013523,0.002678,0.000431,0.000940
99103000,0.0324,0.013523,0.002678,0.000431,0.000823
99104000,0.0324,0.013523,0.002678,0.000431,0.000823
99105000,0.0324,0.013523,0.002678,0.000431,0.000940
99106000,0.0324,0.013523,0.002678,0.000431,0.000940
99107000,0.0324,0.013523,0.002678,0.000431,0.000823
99108000,0.0324,0.013523,0.002678,0.000431,0.000823
99109000,0.0324,0.013523,0.002678,0.000431,0.071105
99110000,0.0324,0.013523,0.002678,0.000431,0.638178
99111000,0.0324,0.013523,0.002678,0.000431,0.600687
99112000,0.0324,0.013523,0.002678,0.000431,0.140916
99113000,0.0324,0.013523,0.002678,0.000431,0.133042
99114000,0.0324,0.013523,0.002678,0.000431,0.579531
99115000,0.0324,0.013523,0.002678,0.000431,0.234351
99116000,0.0324,0.013523,0.002678,0.000431,0.267494
99117000,0.0324,0.013523,0.002678,0.000431,0.316738
99118000,0.0324,0.013523,0.002678,0.000431,0.138683
99119000,0.0324,0.013523,0.002678,0.000431,0.178408
99120000,0.0324,0.013523,0.002678,0.000431,0.100487
99121000,0.0324,0.013523,0.002678,0.000431,0.493383
99122000,0.0324,0.013523,0.002678,0.000431,0.201678
99123000,0.0324,0.013523,0.002678,0.000431,0.150083
99124000,0.0324,0.013523,0.002678,0.000431,0.131632
99125000,0.0324,0.013523,0.002678,0.000431,0.125873
99126000,0.0324,0.013523,0.002678,0.000431,0.123640
99127000,0.0324,0.013523,0.002678,0.000431,0.096608
99128000,0.0324,0.013523,0.002678,0.000431,0.090497
99129000,0.0324,0.013523,0.002678,0.000431,0.079684
99130000,0.0324,0.013523,0.002678,0.000431,0.068166
99131000,0.0324,0.013523,0.002678,0.000431,0.061937
99132000,0.0324,0.013523,0.002678,0.000431,0.058412
99133000,0.0324,0.013523,0.002678,0.000431,0.056178
99134000,0.0324,0.013523,0.002678,0.000431,0.052535
99135000,0.0324,0.013523,0.002678,0.000431,0.049479
99136000,0.0324,0.013523,0.002678,0.000431,0.050890
99137000,0.0324,0.013523,0.002678,0.000431,0.039372
99138000,0.0324,0.013523,0.002678,0.000431,0.041605
99139000,0.0324,0.013523,0.002678,0.000431,0.039137
99140000,0.0324,0.013523,0.002678,0.000431,0.035023
99141000,0.0324,0.013523,0.002678,0.000431,0.035964
99142000,0.0324,0.013523,0.002678,0.000431,0.026209
99143000,0.0324,0.013523,0.002678,0.000431,0.029147
99144000,0.0324,0.013523,0.002678,0.000431,0.023741
99145000,0.0324,0.013523,0.002678,0.000431,0.021743
99146000,0.0324,0.013523,0.002678,0.000431,0.028089
99147000,0.0324,0.013523,0.002678,0.000431,0.023858
99148000,0.0324,0.013523,0.002678,0.000431,0.016336
99149000,0.0324,0.013523,0.002678,0.000431,0.015984
99150000,0.0324,0.013523,0.002678,0.000431,0.015749
99151000,0.0324,0.013523,0.002678,0.000431,0.016571
99152000,0.0324,0.013523,0.002678,0.000431,0.009990
99153000,0.0324,0.013523,0.002678,0.000431,0.009167
99154000,0.0324,0.013523,0.002678,0.000431,0.012223
99155000,0.0324,0.013523,0.002678,0.000431,0.009637
99156000,0.0324,0.013523,0.002678,0.000431,0.010578
99157000,0.0324,0.013523,0.002678,0.000431,0.007757
99158000,0.0324,0.013523,0.002678,0.000431,0.010107
99159000,0.0324,0.013523,0.002678,0.000431,0.004231
99160000,0.0324,0.013523,0.002678,0.000431,0.003526
99161000,0.0324,0.013523,0.002678,0.000431,0.004701
99162000,0.0324,0.013523,0.002678,0.000431,0.003996
99163000,0.0324,0.013523,0.002678,0.000431,0.003996
99164000,0.0324,0.013523,0.002678,0.000431,0.006699
99165000,0.0324,0.013523,0.002678,0.000431,0.003056
99166000,0.0324,0.013523,0.002678,0.000431,0.003173
99167000,0.0324,0.013523,0.002678,0.000431,0.004701
99168000,0.0324,0.013523,0.002678,0.000431,0.001763
99169000,0.0324,0.013523,0.002678,0.000431,0.083092
99170000,0.0324,0.013523,0.002678,0.000431,0.658863
99171000,0.0324,0.013523,0.002678,0.000431,0.542745
99172000,0.0324,0.013523,0.002678,0.000431,0.147615
99173000,0.0324,0.013523,0.002678,0.000431,0.134922
99174000,0.0324,0.013523,0.002678,0.000431,0.635475
99175000,0.0324,0.013523,0.002678,0.000431,0.248925
99176000,0.0324,0.013523,0.002678,0.000431,0.272548
99177000,0.0324,0.013523,0.002678,0.000431,0.259972
99178000,0.0324,0.013523,0.002678,0.000431,0.149143
99179000,0.0324,0.013523,0.002678,0.000431,0.139741
99180000,0.0324,0.013523,0.002678,0.000431,0.230943
99181000,0.0324,0.013523,0.002678,0.000431,0.408528
99182000,0.0324,0.013523,0.002678,0.000431,0.163599
99183000,0.0324,0.013523,0.002678,0.000431,0.151141
99184000,0.0324,0.013523,0.002678,0.000431,0.135392
99185000,0.0324,0.013523,0.002678,0.000431,0.112122
99186000,0.0324,0.013523,0.002678,0.000431,0.091790
99187000,0.0324,0.013523,0.002678,0.000431,0.083680
99188000,0.0324,0.013523,0.002678,0.000431,0.084150
99189000,0.0324,0.013523,0.002678,0.000431,0.063583
99190000,0.0324,0.013523,0.002678,0.000431,0.066286
99191000,0.0324,0.013523,0.002678,0.000431,0.056296
99192000,0.0324,0.013523,0.002678,0.000431,0.044778
99193000,0.0324,0.013523,0.002678,0.000431,0.041487
99194000,0.0324,0.013523,0.002678,0.000431,0.047481
99195000,0.0324,0.013523,0.002678,0.000431,0.031615
99196000,0.0324,0.013523,0.002678,0.000431,0.034201
99197000,0.0324,0.013523,0.002678,0.000431,0.028912
99198000,0.0324,0.013523,0.002678,0.000431,0.027267
99199000,0.0324,0.013523,0.002678,0.000431,0.034553
99200000,0.0324,0.013523,0.002678,0.000431,0.026561
99201000,0.0324,0.013523,0.002678,0.000431,0.017512
99202000,0.0324,0.013523,0.002678,0.000431,0.017747
99203000,0.0324,0.013523,0.002678,0.000431,0.016924
99204000,0.0324,0.013523,0.002678,0.000431,0.014691
99205000,0.0324,0.013523,0.002678,0.000431,0.015984
99206000,0.0324,0.013523,0.002678,0.000431,0.013046
99207000,0.0324,0.013523,0.002678,0.000431,0.015631
99208000,0.0324,0.013523,0.002678,0.000431,0.010813
99209000,0.0324,0.013523,0.002678,0.000431,0.012693
99210000,0.0324,0.013523,0.002678,0.000431,0.015866
99211000,0.0324,0.013523,0.002678,0.000431,0.008462
99212000,0.0324,0.013523,0.002678,0.000431,0.009285
99213000,0.0324,0.013523,0.002678,0.000431,0.008227
99214000,0.0324,0.013523,0.002678,0.000431,0.007522
99215000,0.0324,0.013523,0.002678,0.000431,0.007522
99216000,0.0324,0.013523,0.002678,0.000431,0.007169
99217000,0.0324,0.013523,0.002678,0.000431,0.007522
99218000,0.0324,0.013523,0.002678,0.000431,0.006347
99219000,0.0324,0.013523,0.002678,0.000431,0.008227
99220000,0.0324,0.013523,0.002678,0.000431,0.007169
99221000,0.0324,0.013523,0.002678,0.000431,0.004936
99222000,0.0324,0.013523,0.002678,0.000431,0.005406
99223000,0.0324,0.013523,0.002678,0.000431,0.004466
99224000,0.0324,0.013523,0.002678,0.000431,0.005171
99225000,0.0324,0.013523,0.002678,0.000431,0.004819
99226000,0.0324,0.013523,0.002678,0.000431,0.004584
99227000,0.0324,0.013523,0.002678,0.000431,0.005171
99228000,0.0324,0.013523,0.002678,0.000431,0.004231
99229000,0.0324,0.013523,0.002678,0.000431,0.004466
99230000,0.0324,0.013523,0.002678,0.000431,0.004349
99231000,0.0324,0.013523,0.002678,0.000431,0.004113
99232000,0.0324,0.013523,0.002678,0.000431,0.005524
99233000,0.0324,0.013523,0.002678,0.000431,0.003408
99234000,0.0324,0.013523,0.002678,0.000431,0.004584
99235000,0.0324,0.013523,0.002678,0.000431,0.002821
99236000,0.0324,0.013523,0.002678,0.000431,0.002351
99237000,0.0324,0.013523,0.002678,0.000431,0.002703
99238000,0.0324,0.013523,0.002678,0.000431,0.002586
99239000,0.0324,0.013523,0.002678,0.000431,0.002468
99240000,0.0324,0.013523,0.002678,0.000431,0.002703
99241000,0.0324,0.013523,0.002678,0.000431,0.002468
99242000,0.0324,0.013523,0.002678,0.000431,0.002586
99243000,0.0324,0.013523,0.002678,0.000431,0.002821
99244000,0.0324,0.013523,0.002678,0.000431,0.002468
99245000,0.0324,0.013523,0.002678,0.000431,0.002586
99246000,0.0324,0.013523,0.002678,0.000431,0.002586
99247000,0.0324,0.013523,0.002678,0.000431,0.002468
99248000,0.0324,0.013523,0.002678,0.000431,0.002821
99249000,0.0324,0.013523,0.002678,0.000431,0.004231
99250000,0.0324,0.013523,0.002678,0.000431,0.001763
99251000,0.0324,0.013523,0.002678,0.000431,0.001645
99252000,0.0324,0.013523,0.002678,0.000431,0.001880
99253000,0.0324,0.013523,0.002678,0.000431,0.001763
99254000,0.0324,0.013523,0.002678,0.000431,0.004466
99255000,0.0324,0.013523,0.002678,0.000431,0.000940
99256000,0.0324,0.013523,0.002678,0.000431,0.136685
99257000,0.0324,0.013523,0.002678,0.000431,0.601039
99258000,0.0324,0.013523,0.002678,0.000431,0.544508
99259000,0.0324,0.013523,0.002678,0.000431,0.133512
99260000,0.0324,0.013523,0.002678,0.000431,0.133042
99261000,0.0324,0.013523,0.002678,0.000431,0.633359
99262000,0.0324,0.013523,0.002678,0.000431,0.242226
99263000,0.0324,0.013523,0.002678,0.000431,0.278072
99264000,0.0324,0.013523,0.002678,0.000431,0.251393
99265000,0.0324,0.013523,0.002678,0.000431,0.142209
99266000,0.0324,0.013523,0.002678,0.000431,0.155255
99267000,0.0324,0.013523,0.002678,0.000431,0.181346
99268000,0.0324,0.013523,0.002678,0.000431,0.451543
99269000,0.0324,0.013523,0.002678,0.000431,0.164657
99270000,0.0324,0.013523,0.002678,0.000431,0.155255
99271000,0.0324,0.013523,0.002678,0.000431,0.128106
99272000,0.0324,0.013523,0.002678,0.000431,0.124697
99273000,0.0324,0.013523,0.002678,0.000431,0.117058
99274000,0.0324,0.013523,0.002678,0.000431,0.109419
99275000,0.0324,0.013523,0.002678,0.000431,0.090967
99276000,0.0324,0.013523,0.002678,0.000431,0.090379
99277000,0.0324,0.013523,0.002678,0.000431,0.076511
99278000,0.0324,0.013523,0.002678,0.000431,0.079919
99279000,0.0324,0.013523,0.002678,0.000431,0.059234
99280000,0.0324,0.013523,0.002678,0.000431,0.056061
99281000,0.0324,0.013523,0.002678,0.000431,0.054416
99282000,0.0324,0.013523,0.002678,0.000431,0.051477
99283000,0.0324,0.013523,0.002678,0.000431,0.046776
99284000,0.0324,0.013523,0.002678,0.000431,0.039607
99285000,0.0324,0.013523,0.002678,0.000431,0.043838
99286000,0.0324,0.013523,0.002678,0.000431,0.034201
99287000,0.0324,0.013523,0.002678,0.000431,0.028324
99288000,0.0324,0.013523,0.002678,0.000431,0.027149
99289000,0.0324,0.013523,0.002678,0.000431,0.026444
99290000,0.0324,0.013523,0.002678,0.000431,0.019157
99291000,0.0324,0.013523,0.002678,0.000431,0.020215
99292000,0.0324,0.013523,0.002678,0.000431,0.011165
99293000,0.0324,0.013523,0.002678,0.000431,0.013986
99294000,0.0324,0.013523,0.002678,0.000431,0.013281
99295000,0.0324,0.013523,0.002678,0.000431,0.010460
99296000,0.0324,0.013523,0.002678,0.000431,0.005171
99297000,0.0324,0.013523,0.002678,0.000431,0.009050
99298000,0.0324,0.013523,0.002678,0.000431,0.003056
99299000,0.0324,0.013523,0.002678,0.000431,0.003291
99300000,0.0324,0.013523,0.002678,0.000431,0.006229
99301000,0.0324,0.013523,0.002678,0.000431,0.001528
99302000,0.0324,0.013523,0.002678,0.000431,0.001645
99303000,0.0324,0.013523,0.002678,0.000431,0.001880
99304000,0.0324,0.013523,0.002678,0.000431,0.001410
99305000,0.0324,0.013523,0.002678,0.000431,0.001645
99306000,0.0324,0.013523,0.002678,0.000431,0.001645
99307000,0.0324,0.013523,0.002678,0.000431,0.001645
99308000,0.0324,0.013523,0.002678,0.000431,0.001645
99309000,0.0324,0.013523,0.002678,0.000431,0.001410
99310000,0.0324,0.013523,0.002678,0.000431,0.001880
99311000,0.0324,0.013523,0.002678,0.000431,0.001645
99312000,0.0324,0.013523,0.002678,0.000431,0.001645
99313000,0.0324,0.013523,0.002678,0.000431,0.001645
99314000,0.0324,0.013523,0.002678,0.000431,0.001645
99315000,0.0324,0.013523,0.002678,0.000431,0.001645
99316000,0.0324,0.013523,0.002678,0.000431,0.001645
99317000,0.0324,0.013523,0.002678,0.000431,0.001645
99318000,0.0324,0.013523,0.002678,0.000431,0.001763
99319000,0.0324,0.013523,0.002678,0.000431,0.001410
99320000,0.0324,0.013523,0.002678,0.000431,0.000823
99321000,0.0324,0.013523,0.002678,0.000431,0.000823
99322000,0.0324,0.013523,0.002678,0.000431,0.000823
99323000,0.0324,0.013523,0.002678,0.000431,0.000823
99324000,0.0324,0.013523,0.002678,0.000431,0.000940
99325000,0.0324,0.013523,0.002678,0.000431,0.000823
99326000,0.0324,0.013523,0.002678,0.000431,0.000823
99327000,0.0324,0.013523,0.002678,0.000431,0.000940
99328000,0.0324,0.013523,0.002678,0.000431,0.000705
99329000,0.0324,0.013523,0.002678,0.000431,0.000940
99330000,0.0324,0.013523,0.002678,0.000431,0.000823
99331000,0.0324,0.013523,0.002678,0.000431,0.000823
99332000,0.0324,0.013523,0.002678,0.000431,0.014809
99333000,0.0324,0.013523,0.002678,0.000431,0.579531
99334000,0.0324,0.013523,0.002678,0.000431,0.614320
99335000,0.0324,0.013523,0.002678,0.000431,0.141739
99336000,0.0324,0.013523,0.002678,0.000431,0.133042
99337000,0.0324,0.013523,0.002678,0.000431,0.431211
99338000,0.0324,0.013523,0.002678,0.000431,0.304633
99339000,0.0324,0.013523,0.002678,0.000431,0.235526
99340000,0.0324,0.013523,0.002678,0.000431,0.299932
99341000,0.0324,0.013523,0.002678,0.000431,0.163834
99342000,0.0324,0.013523,0.002678,0.000431,0.147968
99343000,0.0324,0.013523,0.002678,0.000431,0.161601
99344000,0.0324,0.013523,0.002678,0.000431,0.184989
99345000,0.0324,0.013523,0.002678,0.000431,0.475519
99346000,0.0324,0.013523,0.002678,0.000431,0.197447
99347000,0.0324,0.013523,0.002678,0.000431,0.167713
99348000,0.0324,0.013523,0.002678,0.000431,0.132337
99349000,0.0324,0.013523,0.002678,0.000431,0.133630
99350000,0.0324,0.013523,0.002678,0.000431,0.120701
99351000,0.0324,0.013523,0.002678,0.000431,0.096138
99352000,0.0324,0.013523,0.002678,0.000431,0.077451
99353000,0.0324,0.013523,0.002678,0.000431,0.083445
99354000,0.0324,0.013523,0.002678,0.000431,0.067579
99355000,0.0324,0.013523,0.002678,0.000431,0.058529
99356000,0.0324,0.013523,0.002678,0.000431,0.056766
99357000,0.0324,0.013523,0.002678,0.000431,0.050420
99358000,0.0324,0.013523,0.002678,0.000431,0.050655
99359000,0.0324,0.013523,0.002678,0.000431,0.044543
99360000,0.0324,0.013523,0.002678,0.000431,0.032320
99361000,0.0324,0.013523,0.002678,0.000431,0.032085
99362000,0.0324,0.013523,0.002678,0.000431,0.029500
99363000,0.0324,0.013523,0.002678,0.000431,0.024681
99364000,0.0324,0.013523,0.002678,0.000431,0.015631
99365000,0.0324,0.013523,0.002678,0.000431,0.017982
99366000,0.0324,0.013523,0.002678,0.000431,0.011048
99367000,0.0324,0.013523,0.002678,0.000431,0.007522
99368000,0.0324,0.013523,0.002678,0.000431,0.006229
99369000,0.0324,0.013523,0.002678,0.000431,0.005994
99370000,0.0324,0.013523,0.002678,0.000431,0.012340
99371000,0.0324,0.013523,0.002678,0.000431,0.006934
99372000,0.0324,0.013523,0.002678,0.000431,0.002938
99373000,0.0324,0.013523,0.002678,0.000431,0.002586
99374000,0.0324,0.013523,0.002678,0.000431,0.000705
99375000,0.0324,0.013523,0.002678,0.000431,0.000940
99376000,0.0324,0.013523,0.002678,0.000431,0.000705
99377000,0.0324,0.013523,0.002678,0.000431,0.000940
99378000,0.0324,0.013523,0.002678,0.000431,0.000705
99379000,0.0324,0.013523,0.002678,0.000431,0.000940
99380000,0.0324,0.013523,0.002678,0.000431,0.000705
99381000,0.0324,0.013523,0.002678,0.000431,0.000940
99382000,0.0324,0.013523,0.002678,0.000431,0.002586
99383000,0.0324,0.013523,0.002678,0.000431,0.521825
99384000,0.0324,0.013523,0.002678,0.000431,0.725266
99385000,0.0324,0.013523,0.002678,0.000431,0.149143
99386000,0.0324,0.013523,0.002678,0.000431,0.133512
99387000,0.0324,0.013523,0.002678,0.000431,0.317091
99388000,0.0324,0.013523,0.002678,0.000431,0.458948
99389000,0.0324,0.013523,0.002678,0.000431,0.273723
99390000,0.0324,0.013523,0.002678,0.000431,0.294408
99391000,0.0324,0.013523,0.002678,0.000431,0.150083
99392000,0.0324,0.013523,0.002678,0.000431,0.156077
99393000,0.0324,0.013523,0.002678,0.000431,0.131984
99394000,0.0324,0.013523,0.002678,0.000431,0.279012
99395000,0.0324,0.013523,0.002678,0.000431,0.397598
99396000,0.0324,0.013523,0.002678,0.000431,0.164892
99397000,0.0324,0.013523,0.002678,0.000431,0.146910
99398000,0.0324,0.013523,0.002678,0.000431,0.134922
99399000,0.0324,0.013523,0.002678,0.000431,0.123170
99400000,0.0324,0.013523,0.002678,0.000431,0.104130
99401000,0.0324,0.013523,0.002678,0.000431,0.097783
99402000,0.0324,0.013523,0.002678,0.000431,0.086736
99403000,0.0324,0.013523,0.002678,0.000431,0.085913
99404000,0.0324,0.013523,0.002678,0.000431,0.076041
99405000,0.0324,0.013523,0.002678,0.000431,0.061232
99406000,0.0324,0.013523,0.002678,0.000431,0.056296
99407000,0.0324,0.013523,0.002678,0.000431,0.041605
99408000,0.0324,0.013523,0.002678,0.000431,0.047834
99409000,0.0324,0.013523,0.002678,0.000431,0.040430
99410000,0.0324,0.013523,0.002678,0.000431,0.032320
99411000,0.0324,0.013523,0.002678,0.000431,0.031498
99412000,0.0324,0.013523,0.002678,0.000431,0.029500
99413000,0.0324,0.013523,0.002678,0.000431,0.026209
99414000,0.0324,0.013523,0.002678,0.000431,0.027502
99415000,0.0324,0.013523,0.002678,0.000431,0.025739
99416000,0.0324,0.013523,0.002678,0.000431,0.022330
99417000,0.0324,0.013523,0.002678,0.000431,0.028207
99418000,0.0324,0.013523,0.002678,0.000431,0.020450
99419000,0.0324,0.013523,0.002678,0.000431,0.020215
99420000,0.0324,0.013523,0.002678,0.000431,0.018217
99421000,0.0324,0.013523,0.002678,0.000431,0.015866
99422000,0.0324,0.013523,0.002678,0.000431,0.015749
99423000,0.0324,0.013523,0.002678,0.000431,0.015866
99424000,0.0324,0.013523,0.002678,0.000431,0.017747
99425000,0.0324,0.013523,0.002678,0.000431,0.014691
99426000,0.0324,0.013523,0.002678,0.000431,0.012576
99427000,0.0324,0.013523,0.002678,0.000431,0.012105
99428000,0.0324,0.013523,0.002678,0.000431,0.011988
99429000,0.0324,0.013523,0.002678,0.000431,0.013516
99430000,0.0324,0.013523,0.002678,0.000431,0.013046
99431000,0.0324,0.013523,0.002678,0.000431,0.012458
99432000,0.0324,0.013523,0.002678,0.000431,0.011048
99433000,0.0324,0.013523,0.002678,0.000431,0.009990
99434000,0.0324,0.013523,0.002678,0.000431,0.009637
99435000,0.0324,0.013523,0.002678,0.000431,0.006347
99436000,0.0324,0.013523,0.002678,0.000431,0.006817
99437000,0.0324,0.013523,0.002678,0.000431,0.006464
99438000,0.0324,0.013523,0.002678,0.000431,0.005759
99439000,0.0324,0.013523,0.002678,0.000431,0.005524
99440000,0.0324,0.013523,0.002678,0.000431,0.005876
99441000,0.0324,0.013523,0.002678,0.000431,0.007522
99442000,0.0324,0.013523,0.002678,0.000431,0.005876
99443000,0.0324,0.013523,0.002678,0.000431,0.004349
99444000,0.0324,0.013523,0.002678,0.000431,0.004701
99445000,0.0324,0.013523,0.002678,0.000431,0.007757
99446000,0.0324,0.013523,0.002678,0.000431,0.002233
99447000,0.0324,0.013523,0.002678,0.000431,0.001645
99448000,0.0324,0.013523,0.002678,0.000431,0.001880
99449000,0.0324,0.013523,0.002678,0.000431,0.001645
99450000,0.0324,0.013523,0.002678,0.000431,0.001763
99451000,0.0324,0.013523,0.002678,0.000431,0.001763
99452000,0.0324,0.013523,0.002678,0.000431,0.001880
99453000,0.0324,0.013523,0.002678,0.000431,0.001645
99454000,0.0324,0.013523,0.002678,0.000431,0.001645
99455000,0.0324,0.013523,0.002678,0.000431,0.001880
99456000,0.0324,0.013523,0.002678,0.000431,0.001880
99457000,0.0324,0.013523,0.002678,0.000431,0.001528
99458000,0.0324,0.013523,0.002678,0.000431,0.001763
99459000,0.0324,0.013523,0.002678,0.000431,0.001880
99460000,0.0324,0.013523,0.002678,0.000431,0.001880
99461000,0.0324,0.013523,0.002678,0.000431,0.003291
99462000,0.0324,0.013523,0.002678,0.000431,0.000823
99463000,0.0324,0.013523,0.002678,0.000431,0.000940
99464000,0.0324,0.013523,0.002678,0.000431,0.000940
99465000,0.0324,0.013523,0.002678,0.000431,0.146088
99466000,0.0324,0.013523,0.002678,0.000431,0.587993
99467000,0.0324,0.013523,0.002678,0.000431,0.550384
99468000,0.0324,0.013523,0.002678,0.000431,0.133982
99469000,0.0324,0.013523,0.002678,0.000431,0.136803
99470000,0.0324,0.013523,0.002678,0.000431,0.567896
99471000,0.0324,0.013523,0.002678,0.000431,0.240345
99472000,0.0324,0.013523,0.002678,0.000431,0.264438
99473000,0.0324,0.013523,0.002678,0.000431,0.279717
99474000,0.0324,0.013523,0.002678,0.000431,0.139623
99475000,0.0324,0.013523,0.002678,0.000431,0.161601
99476000,0.0324,0.013523,0.002678,0.000431,0.102955
99477000,0.0324,0.013523,0.002678,0.000431,0.454717
99478000,0.0324,0.013523,0.002678,0.000431,0.264673
99479000,0.0324,0.013523,0.002678,0.000431,0.169123
99480000,0.0324,0.013523,0.002678,0.000431,0.142679
99481000,0.0324,0.013523,0.002678,0.000431,0.133630
99482000,0.0324,0.013523,0.002678,0.000431,0.121759
99483000,0.0324,0.013523,0.002678,0.000431,0.111417
99484000,0.0324,0.013523,0.002678,0.000431,0.108126
99485000,0.0324,0.013523,0.002678,0.000431,0.100252
99486000,0.0324,0.013523,0.002678,0.000431,0.078744
99487000,0.0324,0.013523,0.002678,0.000431,0.079449
99488000,0.0324,0.013523,0.002678,0.000431,0.064288
99489000,0.0324,0.013523,0.002678,0.000431,0.060409
99490000,0.0324,0.013523,0.002678,0.000431,0.054063
99491000,0.0324,0.013523,0.002678,0.000431,0.062525
99492000,0.0324,0.013523,0.002678,0.000431,0.047129
99493000,0.0324,0.013523,0.002678,0.000431,0.036081
99494000,0.0324,0.013523,0.002678,0.000431,0.035141
99495000,0.0324,0.013523,0.002678,0.000431,0.032908
99496000,0.0324,0.013523,0.002678,0.000431,0.031615
99497000,0.0324,0.013523,0.002678,0.000431,0.029852
99498000,0.0324,0.013523,0.002678,0.000431,0.029852
99499000,0.0324,0.013523,0.002678,0.000431,0.032320
99500000,0.0324,0.013523,0.002678,0.000431,0.021273
99501000,0.0324,0.013523,0.002678,0.000431,0.024563
99502000,0.0324,0.013523,0.002678,0.000431,0.020215
99503000,0.0324,0.013523,0.002678,0.000431,0.018217
99504000,0.0324,0.013523,0.002678,0.000431,0.017042
99505000,0.0324,0.013523,0.002678,0.000431,0.017159
99506000,0.0324,0.013523,0.002678,0.000431,0.017277
99507000,0.0324,0.013523,0.002678,0.000431,0.015396
99508000,0.0324,0.013523,0.002678,0.000431,0.015514
99509000,0.0324,0.013523,0.002678,0.000431,0.011870
99510000,0.0324,0.013523,0.002678,0.000431,0.011870
99511000,0.0324,0.013523,0.002678,0.000431,0.016924
99512000,0.0324,0.013523,0.002678,0.000431,0.007169
99513000,0.0324,0.013523,0.002678,0.000431,0.011870
99514000,0.0324,0.013523,0.002678,0.000431,0.006111
99515000,0.0324,0.013523,0.002678,0.000431,0.002586
99516000,0.0324,0.013523,0.002678,0.000431,0.002703
99517000,0.0324,0.013523,0.002678,0.000431,0.003761
99518000,0.0324,0.013523,0.002678,0.000431,0.002938
99519000,0.0324,0.013523,0.002678,0.000431,0.001763
99520000,0.0324,0.013523,0.002678,0.000431,0.001763
99521000,0.0324,0.013523,0.002678,0.000431,0.001880
99522000,0.0324,0.013523,0.002678,0.000431,0.001763
99523000,0.0324,0.013523,0.002678,0.000431,0.003526
99524000,0.0324,0.013523,0.002678,0.000431,0.000940
99525000,0.0324,0.013523,0.002678,0.000431,0.000940
99526000,0.0324,0.013523,0.002678,0.000431,0.000823
99527000,0.0324,0.013523,0.002678,0.000431,0.000823
99528000,0.0324,0.013523,0.002678,0.000431,0.000940
99529000,0.0324,0.013523,0.002678,0.000431,0.000940
99530000,0.0324,0.013523,0.002678,0.000431,0.000823
99531000,0.0324,0.013523,0.002678,0.000431,0.000823
99532000,0.0324,0.013523,0.002678,0.000431,0.000940
99533000,0.0324,0.013523,0.002678,0.000431,0.000823
99534000,0.0324,0.013523,0.002678,0.000431,0.000940
99535000,0.0324,0.013523,0.002678,0.000431,0.000823
99536000,0.0324,0.013523,0.002678,0.000431,0.000940
99537000,0.0324,0.013523,0.002678,0.000431,0.000823
99538000,0.0324,0.013523,0.002678,0.000431,0.000823
99539000,0.0324,0.013523,0.002678,0.000431,0.000940
99540000,0.0324,0.013523,0.002678,0.000431,0.000940
99541000,0.0324,0.013523,0.002678,0.000431,0.000705
99542000,0.0324,0.013523,0.002678,0.000431,0.001763
99543000,0.0324,0.013523,0.002678,0.000431,0.447900
99544000,0.0324,0.013523,0.002678,0.000431,0.757234
99545000,0.0324,0.013523,0.002678,0.000431,0.143502
99546000,0.0324,0.013523,0.002678,0.000431,0.134922
99547000,0.0324,0.013523,0.002678,0.000431,0.218367
99548000,0.0324,0.013523,0.002678,0.000431,0.593282
99549000,0.0324,0.013523,0.002678,0.000431,0.233411
99550000,0.0324,0.013523,0.002678,0.000431,0.319207
99551000,0.0324,0.013523,0.002678,0.000431,0.157370
99552000,0.0324,0.013523,0.002678,0.000431,0.140094
99553000,0.0324,0.013523,0.002678,0.000431,0.127753
99554000,0.0324,0.013523,0.002678,0.000431,0.314858
99555000,0.0324,0.013523,0.002678,0.000431,0.360106
99556000,0.0324,0.013523,0.002678,0.000431,0.149613
99557000,0.0324,0.013523,0.002678,0.000431,0.130104
99558000,0.0324,0.013523,0.002678,0.000431,0.123640
99559000,0.0324,0.013523,0.002678,0.000431,0.109771
99560000,0.0324,0.013523,0.002678,0.000431,0.095315
99561000,0.0324,0.013523,0.002678,0.000431,0.092847
99562000,0.0324,0.013523,0.002678,0.000431,0.081917
99563000,0.0324,0.013523,0.002678,0.000431,0.072750
99564000,0.0324,0.013523,0.002678,0.000431,0.072750
99565000,0.0324,0.013523,0.002678,0.000431,0.055708
99566000,0.0324,0.013523,0.002678,0.000431,0.041487
99567000,0.0324,0.013523,0.002678,0.000431,0.035729
99568000,0.0324,0.013523,0.002678,0.000431,0.036434
99569000,0.0324,0.013523,0.002678,0.000431,0.024798
99570000,0.0324,0.013523,0.002678,0.000431,0.022683
99571000,0.0324,0.013523,0.002678,0.000431,0.019862
99572000,0.0324,0.013523,0.002678,0.000431,0.036081
99573000,0.0324,0.013523,0.002678,0.000431,0.016807
99574000,0.0324,0.013523,0.002678,0.000431,0.008227
99575000,0.0324,0.013523,0.002678,0.000431,0.009050
99576000,0.0324,0.013523,0.002678,0.000431,0.008815
99577000,0.0324,0.013523,0.002678,0.000431,0.006934
99578000,0.0324,0.013523,0.002678,0.000431,0.003996
99579000,0.0324,0.013523,0.002678,0.000431,0.005054
99580000,0.0324,0.013523,0.002678,0.000431,0.006347
99581000,0.0324,0.013523,0.002678,0.000431,0.065346
99582000,0.0324,0.013523,0.002678,0.000431,0.584585
99583000,0.0324,0.013523,0.002678,0.000431,0.594105
99584000,0.0324,0.013523,0.002678,0.000431,0.136333
99585000,0.0324,0.013523,0.002678,0.000431,0.134217
99586000,0.0324,0.013523,0.002678,0.000431,0.573655
99587000,0.0324,0.013523,0.002678,0.000431,0.281950
99588000,0.0324,0.013523,0.002678,0.000431,0.228945
99589000,0.0324,0.013523,0.002678,0.000431,0.253861
99590000,0.0324,0.013523,0.002678,0.000431,0.150789
99591000,0.0324,0.013523,0.002678,0.000431,0.187457
99592000,0.0324,0.013523,0.002678,0.000431,0.086266
99593000,0.0324,0.013523,0.002678,0.000431,0.503373
99594000,0.0324,0.013523,0.002678,0.000431,0.241285
99595000,0.0324,0.013523,0.002678,0.000431,0.156430
99596000,0.0324,0.013523,0.002678,0.000431,0.147380
99597000,0.0324,0.013523,0.002678,0.000431,0.118116
99598000,0.0324,0.013523,0.002678,0.000431,0.114237
99599000,0.0324,0.013523,0.002678,0.000431,0.103307
99600000,0.0324,0.013523,0.002678,0.000431,0.098136
99601000,0.0324,0.013523,0.002678,0.000431,0.082505
99602000,0.0324,0.013523,0.002678,0.000431,0.077098
99603000,0.0324,0.013523,0.002678,0.000431,0.069812
99604000,0.0324,0.013523,0.002678,0.000431,0.057706
99605000,0.0324,0.013523,0.002678,0.000431,0.043720
99606000,0.0324,0.013523,0.002678,0.000431,0.035141
99607000,0.0324,0.013523,0.002678,0.000431,0.039725
99608000,0.0324,0.013523,0.002678,0.000431,0.033613
99609000,0.0324,0.013523,0.002678,0.000431,0.022213
99610000,0.0324,0.013523,0.002678,0.000431,0.021978
99611000,0.0324,0.013523,0.002678,0.000431,0.020567
99612000,0.0324,0.013523,0.002678,0.000431,0.025739
99613000,0.0324,0.013523,0.002678,0.000431,0.017277
99614000,0.0324,0.013523,0.002678,0.000431,0.016924
99615000,0.0324,0.013523,0.002678,0.000431,0.016571
99616000,0.0324,0.013523,0.002678,0.000431,0.024211
99617000,0.0324,0.013523,0.002678,0.000431,0.010695
99618000,0.0324,0.013523,0.002678,0.000431,0.011870
99619000,0.0324,0.013523,0.002678,0.000431,0.010107
99620000,0.0324,0.013523,0.002678,0.000431,0.007874
99621000,0.0324,0.013523,0.002678,0.000431,0.006699
99622000,0.0324,0.013523,0.002678,0.000431,0.009755
99623000,0.0324,0.013523,0.002678,0.000431,0.012811
99624000,0.0324,0.013523,0.002678,0.000431,0.003408
99625000,0.0324,0.013523,0.002678,0.000431,0.004936
99626000,0.0324,0.013523,0.002678,0.000431,0.001880
99627000,0.0324,0.013523,0.002678,0.000431,0.001763
99628000,0.0324,0.013523,0.002678,0.000431,0.001528
99629000,0.0324,0.013523,0.002678,0.000431,0.001880
99630000,0.0324,0.013523,0.002678,0.000431,0.003173
99631000,0.0324,0.013523,0.002678,0.000431,0.000705
99632000,0.0324,0.013523,0.002678,0.000431,0.000940
99633000,0.0324,0.013523,0.002678,0.000431,0.000940
99634000,0.0324,0.013523,0.002678,0.000431,0.000940
99635000,0.0324,0.013523,0.002678,0.000431,0.000705
99636000,0.0324,0.013523,0.002678,0.000431,0.000940
99637000,0.0324,0.013523,0.002678,0.000431,0.000940
99638000,0.0324,0.013523,0.002678,0.000431,0.000823
99639000,0.0324,0.013523,0.002678,0.000431,0.000823
99640000,0.0324,0.013523,0.002678,0.000431,0.000940
99641000,0.0324,0.013523,0.002678,0.000431,0.000940
99642000,0.0324,0.013523,0.002678,0.000431,0.000823
99643000,0.0324,0.013523,0.002678,0.000431,0.000823
99644000,0.0324,0.013523,0.002678,0.000431,0.000940
99645000,0.0324,0.013523,0.002678,0.000431,0.000823
99646000,0.0324,0.013523,0.002678,0.000431,0.000940
99647000,0.0324,0.013523,0.002678,0.000431,0.000823
99648000,0.0324,0.013523,0.002678,0.000431,0.000940
99649000,0.0324,0.013523,0.002678,0.000431,0.000823
99650000,0.0324,0.013523,0.002678,0.000431,0.000823
99651000,0.0324,0.013523,0.002678,0.000431,0.000940
99652000,0.0324,0.013523,0.002678,0.000431,0.000940
99653000,0.0324,0.013523,0.002678,0.000431,0.000823
99654000,0.0324,0.013523,0.002678,0.000431,0.000823
99655000,0.0324,0.013523,0.002678,0.000431,0.000940
99656000,0.0324,0.013523,0.002678,0.000431,0.000940
99657000,0.0324,0.013523,0.002678,0.000431,0.000823
99658000,0.0324,0.013523,0.002678,0.000431,0.000823
99659000,0.0324,0.013523,0.002678,0.000431,0.000940
99660000,0.0324,0.013523,0.002678,0.000431,0.000940
99661000,0.0324,0.013523,0.002678,0.000431,0.000823
99662000,0.0324,0.013523,0.002678,0.000431,0.000823
99663000,0.0324,0.013523,0.002678,0.000431,0.000940
99664000,0.0324,0.013523,0.002678,0.000431,0.000823
99665000,0.0324,0.013523,0.002678,0.000431,0.000940
99666000,0.0324,0.013523,0.002678,0.000431,0.000823
99667000,0.0324,0.013523,0.002678,0.000431,0.000940
99668000,0.0324,0.013523,0.002678,0.000431,0.000823
99669000,0.0324,0.013523,0.002678,0.000431,0.000940
99670000,0.0324,0.013523,0.002678,0.000431,0.002938
99671000,0.0324,0.013523,0.002678,0.000431,0.496557
99672000,0.0324,0.013523,0.002678,0.000431,0.723974
99673000,0.0324,0.013523,0.002678,0.000431,0.184049
99674000,0.0324,0.013523,0.002678,0.000431,0.133982
99675000,0.0324,0.013523,0.002678,0.000431,0.239287
99676000,0.0324,0.013523,0.002678,0.000431,0.532168
99677000,0.0324,0.013523,0.002678,0.000431,0.238230
99678000,0.0324,0.013523,0.002678,0.000431,0.342007
99679000,0.0324,0.013523,0.002678,0.000431,0.176292
99680000,0.0324,0.013523,0.002678,0.000431,0.152317
99681000,0.0324,0.013523,0.002678,0.000431,0.104953
99682000,0.0324,0.013523,0.002678,0.000431,0.395130
99683000,0.0324,0.013523,0.002678,0.000431,0.329549
99684000,0.0324,0.013523,0.002678,0.000431,0.176997
99685000,0.0324,0.013523,0.002678,0.000431,0.157135
99686000,0.0324,0.013523,0.002678,0.000431,0.138096
99687000,0.0324,0.013523,0.002678,0.000431,0.124345
99688000,0.0324,0.013523,0.002678,0.000431,0.107303
99689000,0.0324,0.013523,0.002678,0.000431,0.094140
99690000,0.0324,0.013523,0.002678,0.000431,0.091437
99691000,0.0324,0.013523,0.002678,0.000431,0.082035
99692000,0.0324,0.013523,0.002678,0.000431,0.075336
99693000,0.0324,0.013523,0.002678,0.000431,0.059352
99694000,0.0324,0.013523,0.002678,0.000431,0.054180
99695000,0.0324,0.013523,0.002678,0.000431,0.057001
99696000,0.0324,0.013523,0.002678,0.000431,0.045718
99697000,0.0324,0.013523,0.002678,0.000431,0.040782
99698000,0.0324,0.013523,0.002678,0.000431,0.033496
99699000,0.0324,0.013523,0.002678,0.000431,0.039019
99700000,0.0324,0.013523,0.002678,0.000431,0.034436
99701000,0.0324,0.013523,0.002678,0.000431,0.024328
99702000,0.0324,0.013523,0.002678,0.000431,0.028207
99703000,0.0324,0.013523,0.002678,0.000431,0.018687
99704000,0.0324,0.013523,0.002678,0.000431,0.016101
99705000,0.0324,0.013523,0.002678,0.000431,0.016336
99706000,0.0324,0.013523,0.002678,0.000431,0.011988
99707000,0.0324,0.013523,0.002678,0.000431,0.022918
99708000,0.0324,0.013523,0.002678,0.000431,0.009872
99709000,0.0324,0.013523,0.002678,0.000431,0.007874
99710000,0.0324,0.013523,0.002678,0.000431,0.004466
99711000,0.0324,0.013523,0.002678,0.000431,0.004701
99712000,0.0324,0.013523,0.002678,0.000431,0.003878
99713000,0.0324,0.013523,0.002678,0.000431,0.005641
99714000,0.0324,0.013523,0.002678,0.000431,0.002821
99715000,0.0324,0.013523,0.002678,0.000431,0.005289
99716000,0.0324,0.013523,0.002678,0.000431,0.001880
99717000,0.0324,0.013523,0.002678,0.000431,0.001880
99718000,0.0324,0.013523,0.002678,0.000431,0.001880
99719000,0.0324,0.013523,0.002678,0.000431,0.003526
99720000,0.0324,0.013523,0.002678,0.000431,0.001410
99721000,0.0324,0.013523,0.002678,0.000431,0.001410
99722000,0.0324,0.013523,0.002678,0.000431,0.001293
99723000,0.0324,0.013523,0.002678,0.000431,0.001058
99724000,0.0324,0.013523,0.002678,0.000431,0.000940
99725000,0.0324,0.013523,0.002678,0.000431,0.000823
99726000,0.0324,0.013523,0.002678,0.000431,0.001175
99727000,0.0324,0.013523,0.002678,0.000431,0.000823
99728000,0.0324,0.013523,0.002678,0.000431,0.001175
99729000,0.0324,0.013523,0.002678,0.000431,0.013633
99730000,0.0324,0.013523,0.002678,0.000431,0.642292
99731000,0.0324,0.013523,0.002678,0.000431,0.581294
99732000,0.0324,0.013523,0.002678,0.000431,0.172884
99733000,0.0324,0.013523,0.002678,0.000431,0.136568
99734000,0.0324,0.013523,0.002678,0.000431,0.492326
99735000,0.0324,0.013523,0.002678,0.000431,0.286064
99736000,0.0324,0.013523,0.002678,0.000431,0.236702
99737000,0.0324,0.013523,0.002678,0.000431,0.297816
99738000,0.0324,0.013523,0.002678,0.000431,0.137273
99739000,0.0324,0.013523,0.002678,0.000431,0.157253
99740000,0.0324,0.013523,0.002678,0.000431,0.145735
99741000,0.0324,0.013523,0.002678,0.000431,0.234469
99742000,0.0324,0.013523,0.002678,0.000431,0.419693
99743000,0.0324,0.013523,0.002678,0.000431,0.147850
99744000,0.0324,0.013523,0.002678,0.000431,0.145735
99745000,0.0324,0.013523,0.002678,0.000431,0.119761
99746000,0.0324,0.013523,0.002678,0.000431,0.106481
99747000,0.0324,0.013523,0.002678,0.000431,0.095080
99748000,0.0324,0.013523,0.002678,0.000431,0.081565
99749000,0.0324,0.013523,0.002678,0.000431,0.070869
99750000,0.0324,0.013523,0.002678,0.000431,0.067226
99751000,0.0324,0.013523,0.002678,0.000431,0.059939
99752000,0.0324,0.013523,0.002678,0.000431,0.048892
99753000,0.0324,0.013523,0.002678,0.000431,0.045483
99754000,0.0324,0.013523,0.002678,0.000431,0.048657
99755000,0.0324,0.013523,0.002678,0.000431,0.040900
99756000,0.0324,0.013523,0.002678,0.000431,0.036669
99757000,0.0324,0.013523,0.002678,0.000431,0.035729
99758000,0.0324,0.013523,0.002678,0.000431,0.033143
99759000,0.0324,0.013523,0.002678,0.000431,0.025974
99760000,0.0324,0.013523,0.002678,0.000431,0.024093
99761000,0.0324,0.013523,0.002678,0.000431,0.022448
99762000,0.0324,0.013523,0.002678,0.000431,0.021038
99763000,0.0324,0.013523,0.002678,0.000431,0.022565
99764000,0.0324,0.013523,0.002678,0.000431,0.019392
99765000,0.0324,0.013523,0.002678,0.000431,0.019510
99766000,0.0324,0.013523,0.002678,0.000431,0.021625
99767000,0.0324,0.013523,0.002678,0.000431,0.021038
99768000,0.0324,0.013523,0.002678,0.000431,0.017512
99769000,0.0324,0.013523,0.002678,0.000431,0.017512
99770000,0.0324,0.013523,0.002678,0.000431,0.012576
99771000,0.0324,0.013523,0.002678,0.000431,0.016101
99772000,0.0324,0.013523,0.002678,0.000431,0.010813
99773000,0.0324,0.013523,0.002678,0.000431,0.013516
99774000,0.0324,0.013523,0.002678,0.000431,0.011518
99775000,0.0324,0.013523,0.002678,0.000431,0.009872
99776000,0.0324,0.013523,0.002678,0.000431,0.006229
99777000,0.0324,0.013523,0.002678,0.000431,0.007874
99778000,0.0324,0.013523,0.002678,0.000431,0.005876
99779000,0.0324,0.013523,0.002678,0.000431,0.005524
99780000,0.0324,0.013523,0.002678,0.000431,0.005171
99781000,0.0324,0.013523,0.002678,0.000431,0.005171
99782000,0.0324,0.013523,0.002678,0.000431,0.004349
99783000,0.0324,0.013523,0.002678,0.000431,0.004466
99784000,0.0324,0.013523,0.002678,0.000431,0.006934
99785000,0.0324,0.013523,0.002678,0.000431,0.005759
99786000,0.0324,0.013523,0.002678,0.000431,0.002468
99787000,0.0324,0.013523,0.002678,0.000431,0.004349
99788000,0.0324,0.013523,0.002678,0.000431,0.001645
99789000,0.0324,0.013523,0.002678,0.000431,0.001645
99790000,0.0324,0.013523,0.002678,0.000431,0.001763
99791000,0.0324,0.013523,0.002678,0.000431,0.001763
99792000,0.0324,0.013523,0.002678,0.000431,0.001880
99793000,0.0324,0.013523,0.002678,0.000431,0.001528
99794000,0.0324,0.013523,0.002678,0.000431,0.001763
99795000,0.0324,0.013523,0.002678,0.000431,0.001763
99796000,0.0324,0.013523,0.002678,0.000431,0.001763
99797000,0.0324,0.013523,0.002678,0.000431,0.001410
99798000,0.0324,0.013523,0.002678,0.000431,0.001880
99799000,0.0324,0.013523,0.002678,0.000431,0.001880
99800000,0.0324,0.013523,0.002678,0.000431,0.003173
99801000,0.0324,0.013523,0.002678,0.000431,0.000940
99802000,0.0324,0.013523,0.002678,0.000431,0.000705
99803000,0.0324,0.013523,0.002678,0.000431,0.000940
99804000,0.0324,0.013523,0.002678,0.000431,0.000940
99805000,0.0324,0.013523,0.002678,0.000431,0.000705
99806000,0.0324,0.013523,0.002678,0.000431,0.000940
99807000,0.0324,0.013523,0.002678,0.000431,0.000705
99808000,0.0324,0.013523,0.002678,0.000431,0.000940
99809000,0.0324,0.013523,0.002678,0.000431,0.000823
99810000,0.0324,0.013523,0.002678,0.000431,0.000823
99811000,0.0324,0.013523,0.002678,0.000431,0.212608
99812000,0.0324,0.013523,0.002678,0.000431,0.569894
99813000,0.0324,0.013523,0.002678,0.000431,0.507369
99814000,0.0324,0.013523,0.002678,0.000431,0.132572
99815000,0.0324,0.013523,0.002678,0.000431,0.142209
99816000,0.0324,0.013523,0.002678,0.000431,0.625720
99817000,0.0324,0.013523,0.002678,0.000431,0.235056
99818000,0.0324,0.013523,0.002678,0.000431,0.270667
99819000,0.0324,0.013523,0.002678,0.000431,0.229885
99820000,0.0324,0.013523,0.002678,0.000431,0.146323
99821000,0.0324,0.013523,0.002678,0.000431,0.166537
99822000,0.0324,0.013523,0.002678,0.000431,0.130809
99823000,0.0324,0.013523,0.002678,0.000431,0.459770
99824000,0.0324,0.013523,0.002678,0.000431,0.143267
99825000,0.0324,0.013523,0.002678,0.000431,0.119056
99826000,0.0324,0.013523,0.002678,0.000431,0.113415
99827000,0.0324,0.013523,0.002678,0.000431,0.100722
99828000,0.0324,0.013523,0.002678,0.000431,0.096608
99829000,0.0324,0.013523,0.002678,0.000431,0.085913
99830000,0.0324,0.013523,0.002678,0.000431,0.076981
99831000,0.0324,0.013523,0.002678,0.000431,0.073690
99832000,0.0324,0.013523,0.002678,0.000431,0.066286
99833000,0.0324,0.013523,0.002678,0.000431,0.066638
99834000,0.0324,0.013523,0.002678,0.000431,0.057824
99835000,0.0324,0.013523,0.002678,0.000431,0.051947
99836000,0.0324,0.013523,0.002678,0.000431,0.045718
99837000,0.0324,0.013523,0.002678,0.000431,0.043485
99838000,0.0324,0.013523,0.002678,0.000431,0.043485
99839000,0.0324,0.013523,0.002678,0.000431,0.039372
99840000,0.0324,0.013523,0.002678,0.000431,0.043603
99841000,0.0324,0.013523,0.002678,0.000431,0.043485
99842000,0.0324,0.013523,0.002678,0.000431,0.033378
99843000,0.0324,0.013523,0.002678,0.000431,0.032673
99844000,0.0324,0.013523,0.002678,0.000431,0.024211
99845000,0.0324,0.013523,0.002678,0.000431,0.023388
99846000,0.0324,0.013523,0.002678,0.000431,0.027502
99847000,0.0324,0.013523,0.002678,0.000431,0.025269
99848000,0.0324,0.013523,0.002678,0.000431,0.017159
99849000,0.0324,0.013523,0.002678,0.000431,0.017629
99850000,0.0324,0.013523,0.002678,0.000431,0.010930
99851000,0.0324,0.013523,0.002678,0.000431,0.011283
99852000,0.0324,0.013523,0.002678,0.000431,0.011870
99853000,0.0324,0.013523,0.002678,0.000431,0.013751
99854000,0.0324,0.013523,0.002678,0.000431,0.007757
99855000,0.0324,0.013523,0.002678,0.000431,0.007052
99856000,0.0324,0.013523,0.002678,0.000431,0.005876
99857000,0.0324,0.013523,0.002678,0.000431,0.007639
99858000,0.0324,0.013523,0.002678,0.000431,0.005406
99859000,0.0324,0.013523,0.002678,0.000431,0.005289
99860000,0.0324,0.013523,0.002678,0.000431,0.007287
99861000,0.0324,0.013523,0.002678,0.000431,0.004584
99862000,0.0324,0.013523,0.002678,0.000431,0.004584
99863000,0.0324,0.013523,0.002678,0.000431,0.004231
99864000,0.0324,0.013523,0.002678,0.000431,0.005406
99865000,0.0324,0.013523,0.002678,0.000431,0.003291
99866000,0.0324,0.013523,0.002678,0.000431,0.003526
99867000,0.0324,0.013523,0.002678,0.000431,0.003643
99868000,0.0324,0.013523,0.002678,0.000431,0.004349
99869000,0.0324,0.013523,0.002678,0.000431,0.004701
99870000,0.0324,0.013523,0.002678,0.000431,0.001645
99871000,0.0324,0.013523,0.002678,0.000431,0.001645
99872000,0.0324,0.013523,0.002678,0.000431,0.001880
99873000,0.0324,0.013523,0.002678,0.000431,0.003526
99874000,0.0324,0.013523,0.002678,0.000431,0.000940
99875000,0.0324,0.013523,0.002678,0.000431,0.000823
99876000,0.0324,0.013523,0.002678,0.000431,0.000940
99877000,0.0324,0.013523,0.002678,0.000431,0.000940
99878000,0.0324,0.013523,0.002678,0.000431,0.000823
99879000,0.0324,0.013523,0.002678,0.000431,0.000940
99880000,0.0324,0.013523,0.002678,0.000431,0.071927
99881000,0.0324,0.013523,0.002678,0.000431,0.584350
99882000,0.0324,0.013523,0.002678,0.000431,0.555438
99883000,0.0324,0.013523,0.002678,0.000431,0.134452
99884000,0.0324,0.013523,0.002678,0.000431,0.131161
99885000,0.0324,0.013523,0.002678,0.000431,0.528642
99886000,0.0324,0.013523,0.002678,0.000431,0.250453
99887000,0.0324,0.013523,0.002678,0.000431,0.222481
99888000,0.0324,0.013523,0.002678,0.000431,0.304045
99889000,0.0324,0.013523,0.002678,0.000431,0.142209
99890000,0.0324,0.013523,0.002678,0.000431,0.147498
99891000,0.0324,0.013523,0.002678,0.000431,0.141034
99892000,0.0324,0.013523,0.002678,0.000431,0.256211
99893000,0.0324,0.013523,0.002678,0.000431,0.385022
99894000,0.0324,0.013523,0.002678,0.000431,0.133277
99895000,0.0324,0.013523,0.002678,0.000431,0.131397
99896000,0.0324,0.013523,0.002678,0.000431,0.118233
99897000,0.0324,0.013523,0.002678,0.000431,0.109536
99898000,0.0324,0.013523,0.002678,0.000431,0.111769
99899000,0.0324,0.013523,0.002678,0.000431,0.086148
99900000,0.0324,0.013523,0.002678,0.000431,0.076863
99901000,0.0324,0.013523,0.002678,0.000431,0.071927
99902000,0.0324,0.013523,0.002678,0.000431,0.074983
99903000,0.0324,0.013523,0.002678,0.000431,0.054533
99904000,0.0324,0.013523,0.002678,0.000431,0.052653
99905000,0.0324,0.013523,0.002678,0.000431,0.049949
99906000,0.0324,0.013523,0.002678,0.000431,0.042428
99907000,0.0324,0.013523,0.002678,0.000431,0.042428
99908000,0.0324,0.013523,0.002678,0.000431,0.038314
99909000,0.0324,0.013523,0.002678,0.000431,0.028677
99910000,0.0324,0.013523,0.002678,0.000431,0.028089
99911000,0.0324,0.013523,0.002678,0.000431,0.021273
99912000,0.0324,0.013523,0.002678,0.000431,0.018922
99913000,0.0324,0.013523,0.002678,0.000431,0.016454
99914000,0.0324,0.013523,0.002678,0.000431,0.017982
99915000,0.0324,0.013523,0.002678,0.000431,0.016807
99916000,0.0324,0.013523,0.002678,0.000431,0.012928
99917000,0.0324,0.013523,0.002678,0.000431,0.013751
99918000,0.0324,0.013523,0.002678,0.000431,0.013046
99919000,0.0324,0.013523,0.002678,0.000431,0.011165
99920000,0.0324,0.013523,0.002678,0.000431,0.013281
99921000,0.0324,0.013523,0.002678,0.000431,0.010342
99922000,0.0324,0.013523,0.002678,0.000431,0.012223
99923000,0.0324,0.013523,0.002678,0.000431,0.011870
99924000,0.0324,0.013523,0.002678,0.000431,0.009990
99925000,0.0324,0.013523,0.002678,0.000431,0.012340
99926000,0.0324,0.013523,0.002678,0.000431,0.005876
99927000,0.0324,0.013523,0.002678,0.000431,0.007287
99928000,0.0324,0.013523,0.002678,0.000431,0.005406
99929000,0.0324,0.013523,0.002678,0.000431,0.005406
99930000,0.0324,0.013523,0.002678,0.000431,0.005171
99931000,0.0324,0.013523,0.002678,0.000431,0.005289
99932000,0.0324,0.013523,0.002678,0.000431,0.005994
99933000,0.0324,0.013523,0.002678,0.000431,0.004584
99934000,0.0324,0.013523,0.002678,0.000431,0.005524
99935000,0.0324,0.013523,0.002678,0.000431,0.004701
99936000,0.0324,0.013523,0.002678,0.000431,0.006934
99937000,0.0324,0.013523,0.002678,0.000431,0.001763
99938000,0.0324,0.013523,0.002678,0.000431,0.001763
99939000,0.0324,0.013523,0.002678,0.000431,0.001880
99940000,0.0324,0.013523,0.002678,0.000431,0.001528
99941000,0.0324,0.013523,0.002678,0.000431,0.001763
99942000,0.0324,0.013523,0.002678,0.000431,0.001880
99943000,0.0324,0.013523,0.002678,0.000431,0.001880
99944000,0.0324,0.013523,0.002678,0.000431,0.001528
99945000,0.0324,0.013523,0.002678,0.000431,0.001763
99946000,0.0324,0.013523,0.002678,0.000431,0.001880
99947000,0.0324,0.013523,0.002678,0.000431,0.003056
99948000,0.0324,0.013523,0.002678,0.000431,0.002233
99949000,0.0324,0.013523,0.002678,0.000431,0.000940
99950000,0.0324,0.013523,0.002678,0.000431,0.000940
99951000,0.0324,0.013523,0.002678,0.000431,0.000940
99952000,0.0324,0.013523,0.002678,0.000431,0.000705
99953000,0.0324,0.013523,0.002678,0.000431,0.000940
99954000,0.0324,0.013523,0.002678,0.000431,0.000940
99955000,0.0324,0.013523,0.002678,0.000431,0.000823
99956000,0.0324,0.013523,0.002678,0.000431,0.000823
99957000,0.0324,0.013523,0.002678,0.000431,0.000940
99958000,0.0324,0.013523,0.002678,0.000431,0.000940
99959000,0.0324,0.013523,0.002678,0.000431,0.000823
99960000,0.0324,0.013523,0.002678,0.000431,0.000823
99961000,0.0324,0.013523,0.002678,0.000431,0.000940
99962000,0.0324,0.013523,0.002678,0.000431,0.000823
99963000,0.0324,0.013523,0.002678,0.000431,0.000940
99964000,0.0324,0.013523,0.002678,0.000431,0.000823
99965000,0.0324,0.013523,0.002678,0.000431,0.000940
99966000,0.0324,0.013523,0.002678,0.000431,0.000940
99967000,0.0324,0.013523,0.002678,0.000431,0.000823
99968000,0.0324,0.013523,0.002678,0.000431,0.001058
99969000,0.0324,0.013523,0.002678,0.000431,0.000823
99970000,0.0324,0.013523,0.002678,0.000431,0.000940
99971000,0.0324,0.013523,0.002678,0.000431,0.001645
99972000,0.0324,0.013523,0.002678,0.000431,0.424042
99973000,0.0324,0.013523,0.002678,0.000431,0.699880
99974000,0.0324,0.013523,0.002678,0.000431,0.178525
99975000,0.0324,0.013523,0.002678,0.000431,0.132572
99976000,0.0324,0.013523,0.002678,0.000431,0.186752
99977000,0.0324,0.013523,0.002678,0.000431,0.568366
99978000,0.0324,0.013523,0.002678,0.000431,0.279012
99979000,0.0324,0.013523,0.002678,0.000431,0.286534
99980000,0.0324,0.013523,0.002678,0.000431,0.190631
99981000,0.0324,0.013523,0.002678,0.000431,0.145500
99982000,0.0324,0.013523,0.002678,0.000431,0.147498
99983000,0.0324,0.013523,0.002678,0.000431,0.234821
99984000,0.0324,0.013523,0.002678,0.000431,0.477164
99985000,0.0324,0.013523,0.002678,0.000431,0.208142
99986000,0.0324,0.013523,0.002678,0.000431,0.176057
99987000,0.0324,0.013523,0.002678,0.000431,0.168300
99988000,0.0324,0.013523,0.002678,0.000431,0.138683
99989000,0.0324,0.013523,0.002678,0.000431,0.129281
99990000,0.0324,0.013523,0.002678,0.000431,0.119056
99991000,0.0324,0.013523,0.002678,0.000431,0.102955
99992000,0.0324,0.013523,0.002678,0.000431,0.089321
99993000,0.0324,0.013523,0.002678,0.000431,0.072397
99994000,0.0324,0.013523,0.002678,0.000431,0.065816
99995000,0.0324,0.013523,0.002678,0.000431,0.056884
99996000,0.0324,0.013523,0.002678,0.000431,0.049362
99997000,0.0324,0.013523,0.002678,0.000431,0.046071
99998000,0.0324,0.013523,0.002678,0.000431,0.032438
99999000,0.0324,0.013523,0.002678,0.000431,0.042193
