Cycle,Area(mm^2),PeakDynamic(W),SubthresholdLeakage(W),GateLeakage(W),RunTimeDynamic(W)
9000000,0.0324,0.013523,0.002678,0.000431,0.000823
9001000,0.0324,0.013523,0.002678,0.000431,0.000823
9002000,0.0324,0.013523,0.002678,0.000431,0.000940
9003000,0.0324,0.013523,0.002678,0.000431,0.000940
9004000,0.0324,0.013523,0.002678,0.000431,0.000705
9005000,0.0324,0.013523,0.002678,0.000431,0.000940
9006000,0.0324,0.013523,0.002678,0.000431,0.000940
9007000,0.0324,0.013523,0.002678,0.000431,0.000940
9008000,0.0324,0.013523,0.002678,0.000431,0.000705
9009000,0.0324,0.013523,0.002678,0.000431,0.000940
9010000,0.0324,0.013523,0.002678,0.000431,0.000940
9011000,0.0324,0.013523,0.002678,0.000431,0.000823
9012000,0.0324,0.013523,0.002678,0.000431,0.000823
9013000,0.0324,0.013523,0.002678,0.000431,0.000940
9014000,0.0324,0.013523,0.002678,0.000431,0.000823
9015000,0.0324,0.013523,0.002678,0.000431,0.000940
9016000,0.0324,0.013523,0.002678,0.000431,0.000823
9017000,0.0324,0.013523,0.002678,0.000431,0.000940
9018000,0.0324,0.013523,0.002678,0.000431,0.000823
9019000,0.0324,0.013523,0.002678,0.000431,0.000823
9020000,0.0324,0.013523,0.002678,0.000431,0.001058
9021000,0.0324,0.013523,0.002678,0.000431,0.000823
9022000,0.0324,0.013523,0.002678,0.000431,0.000940
9023000,0.0324,0.013523,0.002678,0.000431,0.000940
9024000,0.0324,0.013523,0.002678,0.000431,0.000823
9025000,0.0324,0.013523,0.002678,0.000431,0.000823
9026000,0.0324,0.013523,0.002678,0.000431,0.000940
9027000,0.0324,0.013523,0.002678,0.000431,0.000823
9028000,0.0324,0.013523,0.002678,0.000431,0.000940
9029000,0.0324,0.013523,0.002678,0.000431,0.000823
9030000,0.0324,0.013523,0.002678,0.000431,0.000940
9031000,0.0324,0.013523,0.002678,0.000431,0.000823
9032000,0.0324,0.013523,0.002678,0.000431,0.000823
9033000,0.0324,0.013523,0.002678,0.000431,0.000940
9034000,0.0324,0.013523,0.002678,0.000431,0.000940
9035000,0.0324,0.013523,0.002678,0.000431,0.000823
9036000,0.0324,0.013523,0.002678,0.000431,0.000823
9037000,0.0324,0.013523,0.002678,0.000431,0.000940
9038000,0.0324,0.013523,0.002678,0.000431,0.000940
9039000,0.0324,0.013523,0.002678,0.000431,0.000705
9040000,0.0324,0.013523,0.002678,0.000431,0.000940
9041000,0.0324,0.013523,0.002678,0.000431,0.000940
9042000,0.0324,0.013523,0.002678,0.000431,0.000823
9043000,0.0324,0.013523,0.002678,0.000431,0.000823
9044000,0.0324,0.013523,0.002678,0.000431,0.000940
9045000,0.0324,0.013523,0.002678,0.000431,0.000940
9046000,0.0324,0.013523,0.002678,0.000431,0.000823
9047000,0.0324,0.013523,0.002678,0.000431,0.072162
9048000,0.0324,0.013523,0.002678,0.000431,0.620079
9049000,0.0324,0.013523,0.002678,0.000431,0.543215
9050000,0.0324,0.013523,0.002678,0.000431,0.134452
9051000,0.0324,0.013523,0.002678,0.000431,0.132102
9052000,0.0324,0.013523,0.002678,0.000431,0.558259
9053000,0.0324,0.013523,0.002678,0.000431,0.242108
9054000,0.0324,0.013523,0.002678,0.000431,0.277367
9055000,0.0324,0.013523,0.002678,0.000431,0.287239
9056000,0.0324,0.013523,0.002678,0.000431,0.145617
9057000,0.0324,0.013523,0.002678,0.000431,0.170768
9058000,0.0324,0.013523,0.002678,0.000431,0.121994
9059000,0.0324,0.013523,0.002678,0.000431,0.501023
9060000,0.0324,0.013523,0.002678,0.000431,0.163364
9061000,0.0324,0.013523,0.002678,0.000431,0.100957
9062000,0.0324,0.013523,0.002678,0.000431,0.073690
9063000,0.0324,0.013523,0.002678,0.000431,0.058999
9064000,0.0324,0.013523,0.002678,0.000431,0.037727
9065000,0.0324,0.013523,0.002678,0.000431,0.034436
9066000,0.0324,0.013523,0.002678,0.000431,0.022800
9067000,0.0324,0.013523,0.002678,0.000431,0.020802
9068000,0.0324,0.013523,0.002678,0.000431,0.014338
9069000,0.0324,0.013523,0.002678,0.000431,0.015984
9070000,0.0324,0.013523,0.002678,0.000431,0.006817
9071000,0.0324,0.013523,0.002678,0.000431,0.006229
9072000,0.0324,0.013523,0.002678,0.000431,0.007639
9073000,0.0324,0.013523,0.002678,0.000431,0.004584
9074000,0.0324,0.013523,0.002678,0.000431,0.004701
9075000,0.0324,0.013523,0.002678,0.000431,0.004349
9076000,0.0324,0.013523,0.002678,0.000431,0.006111
9077000,0.0324,0.013523,0.002678,0.000431,0.005406
9078000,0.0324,0.013523,0.002678,0.000431,0.003408
9079000,0.0324,0.013523,0.002678,0.000431,0.003761
9080000,0.0324,0.013523,0.002678,0.000431,0.004819
9081000,0.0324,0.013523,0.002678,0.000431,0.003878
9082000,0.0324,0.013523,0.002678,0.000431,0.003526
9083000,0.0324,0.013523,0.002678,0.000431,0.000940
9084000,0.0324,0.013523,0.002678,0.000431,0.000823
9085000,0.0324,0.013523,0.002678,0.000431,0.000823
9086000,0.0324,0.013523,0.002678,0.000431,0.000940
9087000,0.0324,0.013523,0.002678,0.000431,0.000705
9088000,0.0324,0.013523,0.002678,0.000431,0.000940
9089000,0.0324,0.013523,0.002678,0.000431,0.179701
9090000,0.0324,0.013523,0.002678,0.000431,0.592342
9091000,0.0324,0.013523,0.002678,0.000431,0.514421
9092000,0.0324,0.013523,0.002678,0.000431,0.133982
9093000,0.0324,0.013523,0.002678,0.000431,0.133512
9094000,0.0324,0.013523,0.002678,0.000431,0.593282
9095000,0.0324,0.013523,0.002678,0.000431,0.238582
9096000,0.0324,0.013523,0.002678,0.000431,0.339069
9097000,0.0324,0.013523,0.002678,0.000431,0.216604
9098000,0.0324,0.013523,0.002678,0.000431,0.141034
9099000,0.0324,0.013523,0.002678,0.000431,0.146205
9100000,0.0324,0.013523,0.002678,0.000431,0.239052
9101000,0.0324,0.013523,0.002678,0.000431,0.412054
9102000,0.0324,0.013523,0.002678,0.000431,0.104247
9103000,0.0324,0.013523,0.002678,0.000431,0.081447
9104000,0.0324,0.013523,0.002678,0.000431,0.059822
9105000,0.0324,0.013523,0.002678,0.000431,0.051125
9106000,0.0324,0.013523,0.002678,0.000431,0.048069
9107000,0.0324,0.013523,0.002678,0.000431,0.033613
9108000,0.0324,0.013523,0.002678,0.000431,0.027972
9109000,0.0324,0.013523,0.002678,0.000431,0.030322
9110000,0.0324,0.013523,0.002678,0.000431,0.014456
9111000,0.0324,0.013523,0.002678,0.000431,0.016807
9112000,0.0324,0.013523,0.002678,0.000431,0.010695
9113000,0.0324,0.013523,0.002678,0.000431,0.007169
9114000,0.0324,0.013523,0.002678,0.000431,0.006582
9115000,0.0324,0.013523,0.002678,0.000431,0.001763
9116000,0.0324,0.013523,0.002678,0.000431,0.001763
9117000,0.0324,0.013523,0.002678,0.000431,0.001763
9118000,0.0324,0.013523,0.002678,0.000431,0.001880
9119000,0.0324,0.013523,0.002678,0.000431,0.001645
9120000,0.0324,0.013523,0.002678,0.000431,0.001763
9121000,0.0324,0.013523,0.002678,0.000431,0.001880
9122000,0.0324,0.013523,0.002678,0.000431,0.003643
9123000,0.0324,0.013523,0.002678,0.000431,0.000823
9124000,0.0324,0.013523,0.002678,0.000431,0.000823
9125000,0.0324,0.013523,0.002678,0.000431,0.000940
9126000,0.0324,0.013523,0.002678,0.000431,0.037609
9127000,0.0324,0.013523,0.002678,0.000431,0.605153
9128000,0.0324,0.013523,0.002678,0.000431,0.585878
9129000,0.0324,0.013523,0.002678,0.000431,0.133159
9130000,0.0324,0.013523,0.002678,0.000431,0.133394
9131000,0.0324,0.013523,0.002678,0.000431,0.534283
9132000,0.0324,0.013523,0.002678,0.000431,0.241285
9133000,0.0324,0.013523,0.002678,0.000431,0.289354
9134000,0.0324,0.013523,0.002678,0.000431,0.270315
9135000,0.0324,0.013523,0.002678,0.000431,0.145617
9136000,0.0324,0.013523,0.002678,0.000431,0.169123
9137000,0.0324,0.013523,0.002678,0.000431,0.100369
9138000,0.0324,0.013523,0.002678,0.000431,0.485274
9139000,0.0324,0.013523,0.002678,0.000431,0.143149
9140000,0.0324,0.013523,0.002678,0.000431,0.085678
9141000,0.0324,0.013523,0.002678,0.000431,0.061350
9142000,0.0324,0.013523,0.002678,0.000431,0.049009
9143000,0.0324,0.013523,0.002678,0.000431,0.035729
9144000,0.0324,0.013523,0.002678,0.000431,0.028559
9145000,0.0324,0.013523,0.002678,0.000431,0.025269
9146000,0.0324,0.013523,0.002678,0.000431,0.014809
9147000,0.0324,0.013523,0.002678,0.000431,0.015161
9148000,0.0324,0.013523,0.002678,0.000431,0.018334
9149000,0.0324,0.013523,0.002678,0.000431,0.007522
9150000,0.0324,0.013523,0.002678,0.000431,0.008462
9151000,0.0324,0.013523,0.002678,0.000431,0.009285
9152000,0.0324,0.013523,0.002678,0.000431,0.006229
9153000,0.0324,0.013523,0.002678,0.000431,0.005994
9154000,0.0324,0.013523,0.002678,0.000431,0.002703
9155000,0.0324,0.013523,0.002678,0.000431,0.002468
9156000,0.0324,0.013523,0.002678,0.000431,0.002586
9157000,0.0324,0.013523,0.002678,0.000431,0.002821
9158000,0.0324,0.013523,0.002678,0.000431,0.002233
9159000,0.0324,0.013523,0.002678,0.000431,0.002703
9160000,0.0324,0.013523,0.002678,0.000431,0.002468
9161000,0.0324,0.013523,0.002678,0.000431,0.002703
9162000,0.0324,0.013523,0.002678,0.000431,0.004701
9163000,0.0324,0.013523,0.002678,0.000431,0.001528
9164000,0.0324,0.013523,0.002678,0.000431,0.001645
9165000,0.0324,0.013523,0.002678,0.000431,0.002703
9166000,0.0324,0.013523,0.002678,0.000431,0.002116
9167000,0.0324,0.013523,0.002678,0.000431,0.000823
9168000,0.0324,0.013523,0.002678,0.000431,0.000823
9169000,0.0324,0.013523,0.002678,0.000431,0.000823
9170000,0.0324,0.013523,0.002678,0.000431,0.000823
9171000,0.0324,0.013523,0.002678,0.000431,0.000940
9172000,0.0324,0.013523,0.002678,0.000431,0.000705
9173000,0.0324,0.013523,0.002678,0.000431,0.000823
9174000,0.0324,0.013523,0.002678,0.000431,0.000940
9175000,0.0324,0.013523,0.002678,0.000431,0.000823
9176000,0.0324,0.013523,0.002678,0.000431,0.000823
9177000,0.0324,0.013523,0.002678,0.000431,0.000823
9178000,0.0324,0.013523,0.002678,0.000431,0.002351
9179000,0.0324,0.013523,0.002678,0.000431,0.438028
9180000,0.0324,0.013523,0.002678,0.000431,0.706932
9181000,0.0324,0.013523,0.002678,0.000431,0.136685
9182000,0.0324,0.013523,0.002678,0.000431,0.133512
9183000,0.0324,0.013523,0.002678,0.000431,0.307219
9184000,0.0324,0.013523,0.002678,0.000431,0.441671
9185000,0.0324,0.013523,0.002678,0.000431,0.253978
9186000,0.0324,0.013523,0.002678,0.000431,0.339304
9187000,0.0324,0.013523,0.002678,0.000431,0.163482
9188000,0.0324,0.013523,0.002678,0.000431,0.142679
9189000,0.0324,0.013523,0.002678,0.000431,0.117646
9190000,0.0324,0.013523,0.002678,0.000431,0.379381
9191000,0.0324,0.013523,0.002678,0.000431,0.312155
9192000,0.0324,0.013523,0.002678,0.000431,0.121054
9193000,0.0324,0.013523,0.002678,0.000431,0.096843
9194000,0.0324,0.013523,0.002678,0.000431,0.059822
9195000,0.0324,0.013523,0.002678,0.000431,0.046189
9196000,0.0324,0.013523,0.002678,0.000431,0.042663
9197000,0.0324,0.013523,0.002678,0.000431,0.033731
9198000,0.0324,0.013523,0.002678,0.000431,0.027972
9199000,0.0324,0.013523,0.002678,0.000431,0.021743
9200000,0.0324,0.013523,0.002678,0.000431,0.017042
9201000,0.0324,0.013523,0.002678,0.000431,0.021273
9202000,0.0324,0.013523,0.002678,0.000431,0.011283
9203000,0.0324,0.013523,0.002678,0.000431,0.009872
9204000,0.0324,0.013523,0.002678,0.000431,0.008109
9205000,0.0324,0.013523,0.002678,0.000431,0.007522
9206000,0.0324,0.013523,0.002678,0.000431,0.008815
9207000,0.0324,0.013523,0.002678,0.000431,0.008815
9208000,0.0324,0.013523,0.002678,0.000431,0.005876
9209000,0.0324,0.013523,0.002678,0.000431,0.006347
9210000,0.0324,0.013523,0.002678,0.000431,0.005876
9211000,0.0324,0.013523,0.002678,0.000431,0.005759
9212000,0.0324,0.013523,0.002678,0.000431,0.005406
9213000,0.0324,0.013523,0.002678,0.000431,0.007757
9214000,0.0324,0.013523,0.002678,0.000431,0.004349
9215000,0.0324,0.013523,0.002678,0.000431,0.005641
9216000,0.0324,0.013523,0.002678,0.000431,0.005054
9217000,0.0324,0.013523,0.002678,0.000431,0.003173
9218000,0.0324,0.013523,0.002678,0.000431,0.003761
9219000,0.0324,0.013523,0.002678,0.000431,0.003526
9220000,0.0324,0.013523,0.002678,0.000431,0.003408
9221000,0.0324,0.013523,0.002678,0.000431,0.003173
9222000,0.0324,0.013523,0.002678,0.000431,0.006817
9223000,0.0324,0.013523,0.002678,0.000431,0.003056
9224000,0.0324,0.013523,0.002678,0.000431,0.001410
9225000,0.0324,0.013523,0.002678,0.000431,0.001880
9226000,0.0324,0.013523,0.002678,0.000431,0.001880
9227000,0.0324,0.013523,0.002678,0.000431,0.001880
9228000,0.0324,0.013523,0.002678,0.000431,0.002351
9229000,0.0324,0.013523,0.002678,0.000431,0.000823
9230000,0.0324,0.013523,0.002678,0.000431,0.000940
9231000,0.0324,0.013523,0.002678,0.000431,0.000940
9232000,0.0324,0.013523,0.002678,0.000431,0.000823
9233000,0.0324,0.013523,0.002678,0.000431,0.000823
9234000,0.0324,0.013523,0.002678,0.000431,0.000940
9235000,0.0324,0.013523,0.002678,0.000431,0.000940
9236000,0.0324,0.013523,0.002678,0.000431,0.000823
9237000,0.0324,0.013523,0.002678,0.000431,0.000823
9238000,0.0324,0.013523,0.002678,0.000431,0.000940
9239000,0.0324,0.013523,0.002678,0.000431,0.000940
9240000,0.0324,0.013523,0.002678,0.000431,0.000823
9241000,0.0324,0.013523,0.002678,0.000431,0.000823
9242000,0.0324,0.013523,0.002678,0.000431,0.000940
9243000,0.0324,0.013523,0.002678,0.000431,0.000823
9244000,0.0324,0.013523,0.002678,0.000431,0.000940
9245000,0.0324,0.013523,0.002678,0.000431,0.000823
9246000,0.0324,0.013523,0.002678,0.000431,0.000940
9247000,0.0324,0.013523,0.002678,0.000431,0.000823
9248000,0.0324,0.013523,0.002678,0.000431,0.000823
9249000,0.0324,0.013523,0.002678,0.000431,0.000940
9250000,0.0324,0.013523,0.002678,0.000431,0.000940
9251000,0.0324,0.013523,0.002678,0.000431,0.000705
9252000,0.0324,0.013523,0.002678,0.000431,0.000940
9253000,0.0324,0.013523,0.002678,0.000431,0.000940
9254000,0.0324,0.013523,0.002678,0.000431,0.000940
9255000,0.0324,0.013523,0.002678,0.000431,0.000705
9256000,0.0324,0.013523,0.002678,0.000431,0.000940
9257000,0.0324,0.013523,0.002678,0.000431,0.000940
9258000,0.0324,0.013523,0.002678,0.000431,0.000823
9259000,0.0324,0.013523,0.002678,0.000431,0.000823
9260000,0.0324,0.013523,0.002678,0.000431,0.071105
9261000,0.0324,0.013523,0.002678,0.000431,0.652164
9262000,0.0324,0.013523,0.002678,0.000431,0.553793
9263000,0.0324,0.013523,0.002678,0.000431,0.138331
9264000,0.0324,0.013523,0.002678,0.000431,0.138213
9265000,0.0324,0.013523,0.002678,0.000431,0.593165
9266000,0.0324,0.013523,0.002678,0.000431,0.273841
9267000,0.0324,0.013523,0.002678,0.000431,0.301460
9268000,0.0324,0.013523,0.002678,0.000431,0.204617
9269000,0.0324,0.013523,0.002678,0.000431,0.148321
9270000,0.0324,0.013523,0.002678,0.000431,0.112474
9271000,0.0324,0.013523,0.002678,0.000431,0.370331
9272000,0.0324,0.013523,0.002678,0.000431,0.289237
9273000,0.0324,0.013523,0.002678,0.000431,0.088851
9274000,0.0324,0.013523,0.002678,0.000431,0.070047
9275000,0.0324,0.013523,0.002678,0.000431,0.053240
9276000,0.0324,0.013523,0.002678,0.000431,0.044308
9277000,0.0324,0.013523,0.002678,0.000431,0.029852
9278000,0.0324,0.013523,0.002678,0.000431,0.022918
9279000,0.0324,0.013523,0.002678,0.000431,0.014926
9280000,0.0324,0.013523,0.002678,0.000431,0.009872
9281000,0.0324,0.013523,0.002678,0.000431,0.009285
9282000,0.0324,0.013523,0.002678,0.000431,0.003408
9283000,0.0324,0.013523,0.002678,0.000431,0.003526
9284000,0.0324,0.013523,0.002678,0.000431,0.005406
9285000,0.0324,0.013523,0.002678,0.000431,0.002586
9286000,0.0324,0.013523,0.002678,0.000431,0.002468
9287000,0.0324,0.013523,0.002678,0.000431,0.002821
9288000,0.0324,0.013523,0.002678,0.000431,0.004584
9289000,0.0324,0.013523,0.002678,0.000431,0.001998
9290000,0.0324,0.013523,0.002678,0.000431,0.003996
9291000,0.0324,0.013523,0.002678,0.000431,0.000940
9292000,0.0324,0.013523,0.002678,0.000431,0.000940
9293000,0.0324,0.013523,0.002678,0.000431,0.000823
9294000,0.0324,0.013523,0.002678,0.000431,0.000823
9295000,0.0324,0.013523,0.002678,0.000431,0.000940
9296000,0.0324,0.013523,0.002678,0.000431,0.000940
9297000,0.0324,0.013523,0.002678,0.000431,0.000823
9298000,0.0324,0.013523,0.002678,0.000431,0.072162
9299000,0.0324,0.013523,0.002678,0.000431,0.601509
9300000,0.0324,0.013523,0.002678,0.000431,0.543803
9301000,0.0324,0.013523,0.002678,0.000431,0.133982
9302000,0.0324,0.013523,0.002678,0.000431,0.132572
9303000,0.0324,0.013523,0.002678,0.000431,0.570247
9304000,0.0324,0.013523,0.002678,0.000431,0.277484
9305000,0.0324,0.013523,0.002678,0.000431,0.239170
9306000,0.0324,0.013523,0.002678,0.000431,0.273488
9307000,0.0324,0.013523,0.002678,0.000431,0.145382
9308000,0.0324,0.013523,0.002678,0.000431,0.179348
9309000,0.0324,0.013523,0.002678,0.000431,0.090497
9310000,0.0324,0.013523,0.002678,0.000431,0.509250
9311000,0.0324,0.013523,0.002678,0.000431,0.138213
9312000,0.0324,0.013523,0.002678,0.000431,0.088029
9313000,0.0324,0.013523,0.002678,0.000431,0.066874
9314000,0.0324,0.013523,0.002678,0.000431,0.057119
9315000,0.0324,0.013523,0.002678,0.000431,0.038079
9316000,0.0324,0.013523,0.002678,0.000431,0.030675
9317000,0.0324,0.013523,0.002678,0.000431,0.023741
9318000,0.0324,0.013523,0.002678,0.000431,0.017982
9319000,0.0324,0.013523,0.002678,0.000431,0.015044
9320000,0.0324,0.013523,0.002678,0.000431,0.017747
9321000,0.0324,0.013523,0.002678,0.000431,0.010930
9322000,0.0324,0.013523,0.002678,0.000431,0.004349
9323000,0.0324,0.013523,0.002678,0.000431,0.006582
9324000,0.0324,0.013523,0.002678,0.000431,0.003056
9325000,0.0324,0.013523,0.002678,0.000431,0.003291
9326000,0.0324,0.013523,0.002678,0.000431,0.002703
9327000,0.0324,0.013523,0.002678,0.000431,0.004349
9328000,0.0324,0.013523,0.002678,0.000431,0.001645
9329000,0.0324,0.013523,0.002678,0.000431,0.001763
9330000,0.0324,0.013523,0.002678,0.000431,0.005289
9331000,0.0324,0.013523,0.002678,0.000431,0.000940
9332000,0.0324,0.013523,0.002678,0.000431,0.002351
9333000,0.0324,0.013523,0.002678,0.000431,0.480220
9334000,0.0324,0.013523,0.002678,0.000431,0.707520
9335000,0.0324,0.013523,0.002678,0.000431,0.133042
9336000,0.0324,0.013523,0.002678,0.000431,0.134570
9337000,0.0324,0.013523,0.002678,0.000431,0.383259
9338000,0.0324,0.013523,0.002678,0.000431,0.387020
9339000,0.0324,0.013523,0.002678,0.000431,0.262323
9340000,0.0324,0.013523,0.002678,0.000431,0.369626
9341000,0.0324,0.013523,0.002678,0.000431,0.150671
9342000,0.0324,0.013523,0.002678,0.000431,0.171826
9343000,0.0324,0.013523,0.002678,0.000431,0.085208
9344000,0.0324,0.013523,0.002678,0.000431,0.507134
9345000,0.0324,0.013523,0.002678,0.000431,0.126460
9346000,0.0324,0.013523,0.002678,0.000431,0.079919
9347000,0.0324,0.013523,0.002678,0.000431,0.062055
9348000,0.0324,0.013523,0.002678,0.000431,0.051947
9349000,0.0324,0.013523,0.002678,0.000431,0.039372
9350000,0.0324,0.013523,0.002678,0.000431,0.027031
9351000,0.0324,0.013523,0.002678,0.000431,0.018687
9352000,0.0324,0.013523,0.002678,0.000431,0.016454
9353000,0.0324,0.013523,0.002678,0.000431,0.012693
9354000,0.0324,0.013523,0.002678,0.000431,0.009637
9355000,0.0324,0.013523,0.002678,0.000431,0.008345
9356000,0.0324,0.013523,0.002678,0.000431,0.005406
9357000,0.0324,0.013523,0.002678,0.000431,0.008462
9358000,0.0324,0.013523,0.002678,0.000431,0.003291
9359000,0.0324,0.013523,0.002678,0.000431,0.003526
9360000,0.0324,0.013523,0.002678,0.000431,0.003291
9361000,0.0324,0.013523,0.002678,0.000431,0.005054
9362000,0.0324,0.013523,0.002678,0.000431,0.006464
9363000,0.0324,0.013523,0.002678,0.000431,0.000823
9364000,0.0324,0.013523,0.002678,0.000431,0.000940
9365000,0.0324,0.013523,0.002678,0.000431,0.000705
9366000,0.0324,0.013523,0.002678,0.000431,0.000940
9367000,0.0324,0.013523,0.002678,0.000431,0.000705
9368000,0.0324,0.013523,0.002678,0.000431,0.000823
9369000,0.0324,0.013523,0.002678,0.000431,0.000940
9370000,0.0324,0.013523,0.002678,0.000431,0.000823
9371000,0.0324,0.013523,0.002678,0.000431,0.000823
9372000,0.0324,0.013523,0.002678,0.000431,0.000823
9373000,0.0324,0.013523,0.002678,0.000431,0.000705
9374000,0.0324,0.013523,0.002678,0.000431,0.000940
9375000,0.0324,0.013523,0.002678,0.000431,0.000940
9376000,0.0324,0.013523,0.002678,0.000431,0.000705
9377000,0.0324,0.013523,0.002678,0.000431,0.000940
9378000,0.0324,0.013523,0.002678,0.000431,0.225066
9379000,0.0324,0.013523,0.002678,0.000431,0.685424
9380000,0.0324,0.013523,0.002678,0.000431,0.350116
9381000,0.0324,0.013523,0.002678,0.000431,0.132102
9382000,0.0324,0.013523,0.002678,0.000431,0.138448
9383000,0.0324,0.013523,0.002678,0.000431,0.602685
9384000,0.0324,0.013523,0.002678,0.000431,0.227300
9385000,0.0324,0.013523,0.002678,0.000431,0.319559
9386000,0.0324,0.013523,0.002678,0.000431,0.235526
9387000,0.0324,0.013523,0.002678,0.000431,0.143384
9388000,0.0324,0.013523,0.002678,0.000431,0.132807
9389000,0.0324,0.013523,0.002678,0.000431,0.261500
9390000,0.0324,0.013523,0.002678,0.000431,0.386433
9391000,0.0324,0.013523,0.002678,0.000431,0.108949
9392000,0.0324,0.013523,0.002678,0.000431,0.092730
9393000,0.0324,0.013523,0.002678,0.000431,0.062878
9394000,0.0324,0.013523,0.002678,0.000431,0.049127
9395000,0.0324,0.013523,0.002678,0.000431,0.055826
9396000,0.0324,0.013523,0.002678,0.000431,0.040077
9397000,0.0324,0.013523,0.002678,0.000431,0.023388
9398000,0.0324,0.013523,0.002678,0.000431,0.014573
9399000,0.0324,0.013523,0.002678,0.000431,0.020450
9400000,0.0324,0.013523,0.002678,0.000431,0.011518
9401000,0.0324,0.013523,0.002678,0.000431,0.012811
9402000,0.0324,0.013523,0.002678,0.000431,0.011283
9403000,0.0324,0.013523,0.002678,0.000431,0.011753
9404000,0.0324,0.013523,0.002678,0.000431,0.008462
9405000,0.0324,0.013523,0.002678,0.000431,0.010460
9406000,0.0324,0.013523,0.002678,0.000431,0.010342
9407000,0.0324,0.013523,0.002678,0.000431,0.007522
9408000,0.0324,0.013523,0.002678,0.000431,0.006934
9409000,0.0324,0.013523,0.002678,0.000431,0.006111
9410000,0.0324,0.013523,0.002678,0.000431,0.005876
9411000,0.0324,0.013523,0.002678,0.000431,0.006229
9412000,0.0324,0.013523,0.002678,0.000431,0.005994
9413000,0.0324,0.013523,0.002678,0.000431,0.009520
9414000,0.0324,0.013523,0.002678,0.000431,0.005054
9415000,0.0324,0.013523,0.002678,0.000431,0.005641
9416000,0.0324,0.013523,0.002678,0.000431,0.006347
9417000,0.0324,0.013523,0.002678,0.000431,0.002586
9418000,0.0324,0.013523,0.002678,0.000431,0.002586
9419000,0.0324,0.013523,0.002678,0.000431,0.002468
9420000,0.0324,0.013523,0.002678,0.000431,0.002821
9421000,0.0324,0.013523,0.002678,0.000431,0.002703
9422000,0.0324,0.013523,0.002678,0.000431,0.002468
9423000,0.0324,0.013523,0.002678,0.000431,0.004349
9424000,0.0324,0.013523,0.002678,0.000431,0.002703
9425000,0.0324,0.013523,0.002678,0.000431,0.000705
9426000,0.0324,0.013523,0.002678,0.000431,0.000940
9427000,0.0324,0.013523,0.002678,0.000431,0.000940
9428000,0.0324,0.013523,0.002678,0.000431,0.028207
9429000,0.0324,0.013523,0.002678,0.000431,0.578239
9430000,0.0324,0.013523,0.002678,0.000431,0.599276
9431000,0.0324,0.013523,0.002678,0.000431,0.131161
9432000,0.0324,0.013523,0.002678,0.000431,0.134687
9433000,0.0324,0.013523,0.002678,0.000431,0.521825
9434000,0.0324,0.013523,0.002678,0.000431,0.226712
9435000,0.0324,0.013523,0.002678,0.000431,0.248807
9436000,0.0324,0.013523,0.002678,0.000431,0.341537
9437000,0.0324,0.013523,0.002678,0.000431,0.140094
9438000,0.0324,0.013523,0.002678,0.000431,0.145617
9439000,0.0324,0.013523,0.002678,0.000431,0.124815
9440000,0.0324,0.013523,0.002678,0.000431,0.324495
9441000,0.0324,0.013523,0.002678,0.000431,0.332957
9442000,0.0324,0.013523,0.002678,0.000431,0.077216
9443000,0.0324,0.013523,0.002678,0.000431,0.056061
9444000,0.0324,0.013523,0.002678,0.000431,0.041840
9445000,0.0324,0.013523,0.002678,0.000431,0.024446
9446000,0.0324,0.013523,0.002678,0.000431,0.019275
9447000,0.0324,0.013523,0.002678,0.000431,0.022918
9448000,0.0324,0.013523,0.002678,0.000431,0.009520
9449000,0.0324,0.013523,0.002678,0.000431,0.003526
9450000,0.0324,0.013523,0.002678,0.000431,0.005641
9451000,0.0324,0.013523,0.002678,0.000431,0.002468
9452000,0.0324,0.013523,0.002678,0.000431,0.002703
9453000,0.0324,0.013523,0.002678,0.000431,0.002468
9454000,0.0324,0.013523,0.002678,0.000431,0.002821
9455000,0.0324,0.013523,0.002678,0.000431,0.002468
9456000,0.0324,0.013523,0.002678,0.000431,0.002586
9457000,0.0324,0.013523,0.002678,0.000431,0.002703
9458000,0.0324,0.013523,0.002678,0.000431,0.002468
9459000,0.0324,0.013523,0.002678,0.000431,0.002586
9460000,0.0324,0.013523,0.002678,0.000431,0.002821
9461000,0.0324,0.013523,0.002678,0.000431,0.002586
9462000,0.0324,0.013523,0.002678,0.000431,0.002586
9463000,0.0324,0.013523,0.002678,0.000431,0.002586
9464000,0.0324,0.013523,0.002678,0.000431,0.002703
9465000,0.0324,0.013523,0.002678,0.000431,0.002586
9466000,0.0324,0.013523,0.002678,0.000431,0.002468
9467000,0.0324,0.013523,0.002678,0.000431,0.002703
9468000,0.0324,0.013523,0.002678,0.000431,0.002468
9469000,0.0324,0.013523,0.002678,0.000431,0.002703
9470000,0.0324,0.013523,0.002678,0.000431,0.003643
9471000,0.0324,0.013523,0.002678,0.000431,0.003056
9472000,0.0324,0.013523,0.002678,0.000431,0.001645
9473000,0.0324,0.013523,0.002678,0.000431,0.001763
9474000,0.0324,0.013523,0.002678,0.000431,0.002586
9475000,0.0324,0.013523,0.002678,0.000431,0.000823
9476000,0.0324,0.013523,0.002678,0.000431,0.000940
9477000,0.0324,0.013523,0.002678,0.000431,0.000940
9478000,0.0324,0.013523,0.002678,0.000431,0.000823
9479000,0.0324,0.013523,0.002678,0.000431,0.013868
9480000,0.0324,0.013523,0.002678,0.000431,0.572480
9481000,0.0324,0.013523,0.002678,0.000431,0.591872
9482000,0.0324,0.013523,0.002678,0.000431,0.133982
9483000,0.0324,0.013523,0.002678,0.000431,0.133394
9484000,0.0324,0.013523,0.002678,0.000431,0.530640
9485000,0.0324,0.013523,0.002678,0.000431,0.251980
9486000,0.0324,0.013523,0.002678,0.000431,0.306278
9487000,0.0324,0.013523,0.002678,0.000431,0.283008
9488000,0.0324,0.013523,0.002678,0.000431,0.140094
9489000,0.0324,0.013523,0.002678,0.000431,0.155255
9490000,0.0324,0.013523,0.002678,0.000431,0.107303
9491000,0.0324,0.013523,0.002678,0.000431,0.431916
9492000,0.0324,0.013523,0.002678,0.000431,0.231060
9493000,0.0324,0.013523,0.002678,0.000431,0.104012
9494000,0.0324,0.013523,0.002678,0.000431,0.073808
9495000,0.0324,0.013523,0.002678,0.000431,0.052183
9496000,0.0324,0.013523,0.002678,0.000431,0.046306
9497000,0.0324,0.013523,0.002678,0.000431,0.039489
9498000,0.0324,0.013523,0.002678,0.000431,0.032438
9499000,0.0324,0.013523,0.002678,0.000431,0.024681
9500000,0.0324,0.013523,0.002678,0.000431,0.020215
9501000,0.0324,0.013523,0.002678,0.000431,0.018099
9502000,0.0324,0.013523,0.002678,0.000431,0.010813
9503000,0.0324,0.013523,0.002678,0.000431,0.007404
9504000,0.0324,0.013523,0.002678,0.000431,0.005054
9505000,0.0324,0.013523,0.002678,0.000431,0.007639
9506000,0.0324,0.013523,0.002678,0.000431,0.004466
9507000,0.0324,0.013523,0.002678,0.000431,0.003173
9508000,0.0324,0.013523,0.002678,0.000431,0.002703
9509000,0.0324,0.013523,0.002678,0.000431,0.001880
9510000,0.0324,0.013523,0.002678,0.000431,0.001645
9511000,0.0324,0.013523,0.002678,0.000431,0.001763
9512000,0.0324,0.013523,0.002678,0.000431,0.003408
9513000,0.0324,0.013523,0.002678,0.000431,0.000823
9514000,0.0324,0.013523,0.002678,0.000431,0.000940
9515000,0.0324,0.013523,0.002678,0.000431,0.000940
9516000,0.0324,0.013523,0.002678,0.000431,0.000823
9517000,0.0324,0.013523,0.002678,0.000431,0.000823
9518000,0.0324,0.013523,0.002678,0.000431,0.000940
9519000,0.0324,0.013523,0.002678,0.000431,0.000940
9520000,0.0324,0.013523,0.002678,0.000431,0.000705
9521000,0.0324,0.013523,0.002678,0.000431,0.000940
9522000,0.0324,0.013523,0.002678,0.000431,0.000940
9523000,0.0324,0.013523,0.002678,0.000431,0.000940
9524000,0.0324,0.013523,0.002678,0.000431,0.000705
9525000,0.0324,0.013523,0.002678,0.000431,0.000940
9526000,0.0324,0.013523,0.002678,0.000431,0.000940
9527000,0.0324,0.013523,0.002678,0.000431,0.000823
9528000,0.0324,0.013523,0.002678,0.000431,0.000823
9529000,0.0324,0.013523,0.002678,0.000431,0.000940
9530000,0.0324,0.013523,0.002678,0.000431,0.000823
9531000,0.0324,0.013523,0.002678,0.000431,0.000940
9532000,0.0324,0.013523,0.002678,0.000431,0.000823
9533000,0.0324,0.013523,0.002678,0.000431,0.000940
9534000,0.0324,0.013523,0.002678,0.000431,0.000823
9535000,0.0324,0.013523,0.002678,0.000431,0.000823
9536000,0.0324,0.013523,0.002678,0.000431,0.000940
9537000,0.0324,0.013523,0.002678,0.000431,0.000940
9538000,0.0324,0.013523,0.002678,0.000431,0.000823
9539000,0.0324,0.013523,0.002678,0.000431,0.000823
9540000,0.0324,0.013523,0.002678,0.000431,0.000940
9541000,0.0324,0.013523,0.002678,0.000431,0.000940
9542000,0.0324,0.013523,0.002678,0.000431,0.000823
9543000,0.0324,0.013523,0.002678,0.000431,0.000823
9544000,0.0324,0.013523,0.002678,0.000431,0.000940
9545000,0.0324,0.013523,0.002678,0.000431,0.000940
9546000,0.0324,0.013523,0.002678,0.000431,0.000823
9547000,0.0324,0.013523,0.002678,0.000431,0.000823
9548000,0.0324,0.013523,0.002678,0.000431,0.000940
9549000,0.0324,0.013523,0.002678,0.000431,0.000823
9550000,0.0324,0.013523,0.002678,0.000431,0.000940
9551000,0.0324,0.013523,0.002678,0.000431,0.000823
9552000,0.0324,0.013523,0.002678,0.000431,0.000940
9553000,0.0324,0.013523,0.002678,0.000431,0.000823
9554000,0.0324,0.013523,0.002678,0.000431,0.000823
9555000,0.0324,0.013523,0.002678,0.000431,0.000940
9556000,0.0324,0.013523,0.002678,0.000431,0.000940
9557000,0.0324,0.013523,0.002678,0.000431,0.101779
9558000,0.0324,0.013523,0.002678,0.000431,0.620196
9559000,0.0324,0.013523,0.002678,0.000431,0.521943
9560000,0.0324,0.013523,0.002678,0.000431,0.135392
9561000,0.0324,0.013523,0.002678,0.000431,0.131161
9562000,0.0324,0.013523,0.002678,0.000431,0.574595
9563000,0.0324,0.013523,0.002678,0.000431,0.244459
9564000,0.0324,0.013523,0.002678,0.000431,0.303223
9565000,0.0324,0.013523,0.002678,0.000431,0.268317
9566000,0.0324,0.013523,0.002678,0.000431,0.140446
9567000,0.0324,0.013523,0.002678,0.000431,0.159368
9568000,0.0324,0.013523,0.002678,0.000431,0.171239
9569000,0.0324,0.013523,0.002678,0.000431,0.456127
9570000,0.0324,0.013523,0.002678,0.000431,0.131749
9571000,0.0324,0.013523,0.002678,0.000431,0.084620
9572000,0.0324,0.013523,0.002678,0.000431,0.062760
9573000,0.0324,0.013523,0.002678,0.000431,0.046424
9574000,0.0324,0.013523,0.002678,0.000431,0.037491
9575000,0.0324,0.013523,0.002678,0.000431,0.028442
9576000,0.0324,0.013523,0.002678,0.000431,0.022918
9577000,0.0324,0.013523,0.002678,0.000431,0.021155
9578000,0.0324,0.013523,0.002678,0.000431,0.017747
9579000,0.0324,0.013523,0.002678,0.000431,0.011400
9580000,0.0324,0.013523,0.002678,0.000431,0.008580
9581000,0.0324,0.013523,0.002678,0.000431,0.008815
9582000,0.0324,0.013523,0.002678,0.000431,0.006111
9583000,0.0324,0.013523,0.002678,0.000431,0.008345
9584000,0.0324,0.013523,0.002678,0.000431,0.009285
9585000,0.0324,0.013523,0.002678,0.000431,0.003291
9586000,0.0324,0.013523,0.002678,0.000431,0.003526
9587000,0.0324,0.013523,0.002678,0.000431,0.003408
9588000,0.0324,0.013523,0.002678,0.000431,0.004819
9589000,0.0324,0.013523,0.002678,0.000431,0.007522
9590000,0.0324,0.013523,0.002678,0.000431,0.002703
9591000,0.0324,0.013523,0.002678,0.000431,0.000940
9592000,0.0324,0.013523,0.002678,0.000431,0.000940
9593000,0.0324,0.013523,0.002678,0.000431,0.000705
9594000,0.0324,0.013523,0.002678,0.000431,0.000940
9595000,0.0324,0.013523,0.002678,0.000431,0.000940
9596000,0.0324,0.013523,0.002678,0.000431,0.000823
9597000,0.0324,0.013523,0.002678,0.000431,0.000823
9598000,0.0324,0.013523,0.002678,0.000431,0.000940
9599000,0.0324,0.013523,0.002678,0.000431,0.208260
9600000,0.0324,0.013523,0.002678,0.000431,0.574478
9601000,0.0324,0.013523,0.002678,0.000431,0.499730
9602000,0.0324,0.013523,0.002678,0.000431,0.133512
9603000,0.0324,0.013523,0.002678,0.000431,0.134922
9604000,0.0324,0.013523,0.002678,0.000431,0.593870
9605000,0.0324,0.013523,0.002678,0.000431,0.259267
9606000,0.0324,0.013523,0.002678,0.000431,0.263851
9607000,0.0324,0.013523,0.002678,0.000431,0.230590
9608000,0.0324,0.013523,0.002678,0.000431,0.149378
9609000,0.0324,0.013523,0.002678,0.000431,0.151141
9610000,0.0324,0.013523,0.002678,0.000431,0.200503
9611000,0.0324,0.013523,0.002678,0.000431,0.428273
9612000,0.0324,0.013523,0.002678,0.000431,0.093317
9613000,0.0324,0.013523,0.002678,0.000431,0.069107
9614000,0.0324,0.013523,0.002678,0.000431,0.048657
9615000,0.0324,0.013523,0.002678,0.000431,0.032908
9616000,0.0324,0.013523,0.002678,0.000431,0.030557
9617000,0.0324,0.013523,0.002678,0.000431,0.018217
9618000,0.0324,0.013523,0.002678,0.000431,0.009402
9619000,0.0324,0.013523,0.002678,0.000431,0.009637
9620000,0.0324,0.013523,0.002678,0.000431,0.007287
9621000,0.0324,0.013523,0.002678,0.000431,0.008345
9622000,0.0324,0.013523,0.002678,0.000431,0.010460
9623000,0.0324,0.013523,0.002678,0.000431,0.007992
9624000,0.0324,0.013523,0.002678,0.000431,0.002703
9625000,0.0324,0.013523,0.002678,0.000431,0.002586
9626000,0.0324,0.013523,0.002678,0.000431,0.004231
9627000,0.0324,0.013523,0.002678,0.000431,0.001763
9628000,0.0324,0.013523,0.002678,0.000431,0.003643
9629000,0.0324,0.013523,0.002678,0.000431,0.000823
9630000,0.0324,0.013523,0.002678,0.000431,0.000940
9631000,0.0324,0.013523,0.002678,0.000431,0.000823
9632000,0.0324,0.013523,0.002678,0.000431,0.000823
9633000,0.0324,0.013523,0.002678,0.000431,0.000940
9634000,0.0324,0.013523,0.002678,0.000431,0.000940
9635000,0.0324,0.013523,0.002678,0.000431,0.098019
9636000,0.0324,0.013523,0.002678,0.000431,0.609266
9637000,0.0324,0.013523,0.002678,0.000431,0.524763
9638000,0.0324,0.013523,0.002678,0.000431,0.134452
9639000,0.0324,0.013523,0.002678,0.000431,0.133512
9640000,0.0324,0.013523,0.002678,0.000431,0.566133
9641000,0.0324,0.013523,0.002678,0.000431,0.245986
9642000,0.0324,0.013523,0.002678,0.000431,0.307219
9643000,0.0324,0.013523,0.002678,0.000431,0.246339
9644000,0.0324,0.013523,0.002678,0.000431,0.144325
9645000,0.0324,0.013523,0.002678,0.000431,0.166537
9646000,0.0324,0.013523,0.002678,0.000431,0.155960
9647000,0.0324,0.013523,0.002678,0.000431,0.484569
9648000,0.0324,0.013523,0.002678,0.000431,0.144090
9649000,0.0324,0.013523,0.002678,0.000431,0.103425
9650000,0.0324,0.013523,0.002678,0.000431,0.099781
9651000,0.0324,0.013523,0.002678,0.000431,0.071575
9652000,0.0324,0.013523,0.002678,0.000431,0.055473
9653000,0.0324,0.013523,0.002678,0.000431,0.044543
9654000,0.0324,0.013523,0.002678,0.000431,0.027737
9655000,0.0324,0.013523,0.002678,0.000431,0.030087
9656000,0.0324,0.013523,0.002678,0.000431,0.024328
9657000,0.0324,0.013523,0.002678,0.000431,0.017512
9658000,0.0324,0.013523,0.002678,0.000431,0.015749
9659000,0.0324,0.013523,0.002678,0.000431,0.010930
9660000,0.0324,0.013523,0.002678,0.000431,0.007169
9661000,0.0324,0.013523,0.002678,0.000431,0.003526
9662000,0.0324,0.013523,0.002678,0.000431,0.003526
9663000,0.0324,0.013523,0.002678,0.000431,0.003291
9664000,0.0324,0.013523,0.002678,0.000431,0.004584
9665000,0.0324,0.013523,0.002678,0.000431,0.002586
9666000,0.0324,0.013523,0.002678,0.000431,0.002468
9667000,0.0324,0.013523,0.002678,0.000431,0.002468
9668000,0.0324,0.013523,0.002678,0.000431,0.002821
9669000,0.0324,0.013523,0.002678,0.000431,0.002351
9670000,0.0324,0.013523,0.002678,0.000431,0.002468
9671000,0.0324,0.013523,0.002678,0.000431,0.002586
9672000,0.0324,0.013523,0.002678,0.000431,0.002468
9673000,0.0324,0.013523,0.002678,0.000431,0.002468
9674000,0.0324,0.013523,0.002678,0.000431,0.002586
9675000,0.0324,0.013523,0.002678,0.000431,0.002703
9676000,0.0324,0.013523,0.002678,0.000431,0.002351
9677000,0.0324,0.013523,0.002678,0.000431,0.002468
9678000,0.0324,0.013523,0.002678,0.000431,0.002703
9679000,0.0324,0.013523,0.002678,0.000431,0.002586
9680000,0.0324,0.013523,0.002678,0.000431,0.002351
9681000,0.0324,0.013523,0.002678,0.000431,0.002468
9682000,0.0324,0.013523,0.002678,0.000431,0.002703
9683000,0.0324,0.013523,0.002678,0.000431,0.002586
9684000,0.0324,0.013523,0.002678,0.000431,0.002351
9685000,0.0324,0.013523,0.002678,0.000431,0.002703
9686000,0.0324,0.013523,0.002678,0.000431,0.002468
9687000,0.0324,0.013523,0.002678,0.000431,0.002586
9688000,0.0324,0.013523,0.002678,0.000431,0.002468
9689000,0.0324,0.013523,0.002678,0.000431,0.002586
9690000,0.0324,0.013523,0.002678,0.000431,0.002468
9691000,0.0324,0.013523,0.002678,0.000431,0.002586
9692000,0.0324,0.013523,0.002678,0.000431,0.002468
9693000,0.0324,0.013523,0.002678,0.000431,0.003526
9694000,0.0324,0.013523,0.002678,0.000431,0.000823
9695000,0.0324,0.013523,0.002678,0.000431,0.000940
9696000,0.0324,0.013523,0.002678,0.000431,0.000823
9697000,0.0324,0.013523,0.002678,0.000431,0.013868
9698000,0.0324,0.013523,0.002678,0.000431,0.637120
9699000,0.0324,0.013523,0.002678,0.000431,0.598571
9700000,0.0324,0.013523,0.002678,0.000431,0.133512
9701000,0.0324,0.013523,0.002678,0.000431,0.133512
9702000,0.0324,0.013523,0.002678,0.000431,0.530170
9703000,0.0324,0.013523,0.002678,0.000431,0.237289
9704000,0.0324,0.013523,0.002678,0.000431,0.237642
9705000,0.0324,0.013523,0.002678,0.000431,0.327669
9706000,0.0324,0.013523,0.002678,0.000431,0.152787
9707000,0.0324,0.013523,0.002678,0.000431,0.152317
9708000,0.0324,0.013523,0.002678,0.000431,0.107538
9709000,0.0324,0.013523,0.002678,0.000431,0.453894
9710000,0.0324,0.013523,0.002678,0.000431,0.220130
9711000,0.0324,0.013523,0.002678,0.000431,0.096373
9712000,0.0324,0.013523,0.002678,0.000431,0.084033
9713000,0.0324,0.013523,0.002678,0.000431,0.072045
9714000,0.0324,0.013523,0.002678,0.000431,0.052888
9715000,0.0324,0.013523,0.002678,0.000431,0.052183
9716000,0.0324,0.013523,0.002678,0.000431,0.039019
9717000,0.0324,0.013523,0.002678,0.000431,0.029500
9718000,0.0324,0.013523,0.002678,0.000431,0.013868
9719000,0.0324,0.013523,0.002678,0.000431,0.012811
9720000,0.0324,0.013523,0.002678,0.000431,0.015279
9721000,0.0324,0.013523,0.002678,0.000431,0.009402
9722000,0.0324,0.013523,0.002678,0.000431,0.012105
9723000,0.0324,0.013523,0.002678,0.000431,0.008697
9724000,0.0324,0.013523,0.002678,0.000431,0.007522
9725000,0.0324,0.013523,0.002678,0.000431,0.003291
9726000,0.0324,0.013523,0.002678,0.000431,0.003643
9727000,0.0324,0.013523,0.002678,0.000431,0.003408
9728000,0.0324,0.013523,0.002678,0.000431,0.005994
9729000,0.0324,0.013523,0.002678,0.000431,0.002586
9730000,0.0324,0.013523,0.002678,0.000431,0.002586
9731000,0.0324,0.013523,0.002678,0.000431,0.002703
9732000,0.0324,0.013523,0.002678,0.000431,0.002821
9733000,0.0324,0.013523,0.002678,0.000431,0.002468
9734000,0.0324,0.013523,0.002678,0.000431,0.002468
9735000,0.0324,0.013523,0.002678,0.000431,0.002821
9736000,0.0324,0.013523,0.002678,0.000431,0.002821
9737000,0.0324,0.013523,0.002678,0.000431,0.002233
9738000,0.0324,0.013523,0.002678,0.000431,0.002703
9739000,0.0324,0.013523,0.002678,0.000431,0.005289
9740000,0.0324,0.013523,0.002678,0.000431,0.001880
9741000,0.0324,0.013523,0.002678,0.000431,0.001410
9742000,0.0324,0.013523,0.002678,0.000431,0.001880
9743000,0.0324,0.013523,0.002678,0.000431,0.001880
9744000,0.0324,0.013523,0.002678,0.000431,0.001645
9745000,0.0324,0.013523,0.002678,0.000431,0.001763
9746000,0.0324,0.013523,0.002678,0.000431,0.001763
9747000,0.0324,0.013523,0.002678,0.000431,0.001880
9748000,0.0324,0.013523,0.002678,0.000431,0.001645
9749000,0.0324,0.013523,0.002678,0.000431,0.001645
9750000,0.0324,0.013523,0.002678,0.000431,0.001880
9751000,0.0324,0.013523,0.002678,0.000431,0.001763
9752000,0.0324,0.013523,0.002678,0.000431,0.001763
9753000,0.0324,0.013523,0.002678,0.000431,0.001645
9754000,0.0324,0.013523,0.002678,0.000431,0.001880
9755000,0.0324,0.013523,0.002678,0.000431,0.001763
9756000,0.0324,0.013523,0.002678,0.000431,0.001528
9757000,0.0324,0.013523,0.002678,0.000431,0.001880
9758000,0.0324,0.013523,0.002678,0.000431,0.001880
9759000,0.0324,0.013523,0.002678,0.000431,0.002938
9760000,0.0324,0.013523,0.002678,0.000431,0.000705
9761000,0.0324,0.013523,0.002678,0.000431,0.000940
9762000,0.0324,0.013523,0.002678,0.000431,0.000940
9763000,0.0324,0.013523,0.002678,0.000431,0.000823
9764000,0.0324,0.013523,0.002678,0.000431,0.000823
9765000,0.0324,0.013523,0.002678,0.000431,0.000940
9766000,0.0324,0.013523,0.002678,0.000431,0.002586
9767000,0.0324,0.013523,0.002678,0.000431,0.509955
9768000,0.0324,0.013523,0.002678,0.000431,0.694004
9769000,0.0324,0.013523,0.002678,0.000431,0.133982
9770000,0.0324,0.013523,0.002678,0.000431,0.133512
9771000,0.0324,0.013523,0.002678,0.000431,0.434502
9772000,0.0324,0.013523,0.002678,0.000431,0.339656
9773000,0.0324,0.013523,0.002678,0.000431,0.269610
9774000,0.0324,0.013523,0.002678,0.000431,0.346591
9775000,0.0324,0.013523,0.002678,0.000431,0.140564
9776000,0.0324,0.013523,0.002678,0.000431,0.176292
9777000,0.0324,0.013523,0.002678,0.000431,0.097078
9778000,0.0324,0.013523,0.002678,0.000431,0.513833
9779000,0.0324,0.013523,0.002678,0.000431,0.175117
9780000,0.0324,0.013523,0.002678,0.000431,0.109889
9781000,0.0324,0.013523,0.002678,0.000431,0.084973
9782000,0.0324,0.013523,0.002678,0.000431,0.067579
9783000,0.0324,0.013523,0.002678,0.000431,0.047716
9784000,0.0324,0.013523,0.002678,0.000431,0.034201
9785000,0.0324,0.013523,0.002678,0.000431,0.022800
9786000,0.0324,0.013523,0.002678,0.000431,0.015161
9787000,0.0324,0.013523,0.002678,0.000431,0.016689
9788000,0.0324,0.013523,0.002678,0.000431,0.013398
9789000,0.0324,0.013523,0.002678,0.000431,0.010578
9790000,0.0324,0.013523,0.002678,0.000431,0.009402
9791000,0.0324,0.013523,0.002678,0.000431,0.010460
9792000,0.0324,0.013523,0.002678,0.000431,0.006817
9793000,0.0324,0.013523,0.002678,0.000431,0.006111
9794000,0.0324,0.013523,0.002678,0.000431,0.006464
9795000,0.0324,0.013523,0.002678,0.000431,0.006582
9796000,0.0324,0.013523,0.002678,0.000431,0.006347
9797000,0.0324,0.013523,0.002678,0.000431,0.007052
9798000,0.0324,0.013523,0.002678,0.000431,0.005641
9799000,0.0324,0.013523,0.002678,0.000431,0.007169
9800000,0.0324,0.013523,0.002678,0.000431,0.005994
9801000,0.0324,0.013523,0.002678,0.000431,0.006464
9802000,0.0324,0.013523,0.002678,0.000431,0.006817
9803000,0.0324,0.013523,0.002678,0.000431,0.006111
9804000,0.0324,0.013523,0.002678,0.000431,0.006817
9805000,0.0324,0.013523,0.002678,0.000431,0.007992
9806000,0.0324,0.013523,0.002678,0.000431,0.005759
9807000,0.0324,0.013523,0.002678,0.000431,0.007639
9808000,0.0324,0.013523,0.002678,0.000431,0.005759
9809000,0.0324,0.013523,0.002678,0.000431,0.003996
9810000,0.0324,0.013523,0.002678,0.000431,0.004701
9811000,0.0324,0.013523,0.002678,0.000431,0.004936
9812000,0.0324,0.013523,0.002678,0.000431,0.002938
9813000,0.0324,0.013523,0.002678,0.000431,0.002938
9814000,0.0324,0.013523,0.002678,0.000431,0.003056
9815000,0.0324,0.013523,0.002678,0.000431,0.002703
9816000,0.0324,0.013523,0.002678,0.000431,0.003878
9817000,0.0324,0.013523,0.002678,0.000431,0.003291
9818000,0.0324,0.013523,0.002678,0.000431,0.001645
9819000,0.0324,0.013523,0.002678,0.000431,0.001880
9820000,0.0324,0.013523,0.002678,0.000431,0.001763
9821000,0.0324,0.013523,0.002678,0.000431,0.001645
9822000,0.0324,0.013523,0.002678,0.000431,0.001880
9823000,0.0324,0.013523,0.002678,0.000431,0.001645
9824000,0.0324,0.013523,0.002678,0.000431,0.001880
9825000,0.0324,0.013523,0.002678,0.000431,0.001645
9826000,0.0324,0.013523,0.002678,0.000431,0.001763
9827000,0.0324,0.013523,0.002678,0.000431,0.001763
9828000,0.0324,0.013523,0.002678,0.000431,0.001645
9829000,0.0324,0.013523,0.002678,0.000431,0.004701
9830000,0.0324,0.013523,0.002678,0.000431,0.458007
9831000,0.0324,0.013523,0.002678,0.000431,0.748184
9832000,0.0324,0.013523,0.002678,0.000431,0.134805
9833000,0.0324,0.013523,0.002678,0.000431,0.134452
9834000,0.0324,0.013523,0.002678,0.000431,0.341772
9835000,0.0324,0.013523,0.002678,0.000431,0.425452
9836000,0.0324,0.013523,0.002678,0.000431,0.292410
9837000,0.0324,0.013523,0.002678,0.000431,0.332605
9838000,0.0324,0.013523,0.002678,0.000431,0.144795
9839000,0.0324,0.013523,0.002678,0.000431,0.166067
9840000,0.0324,0.013523,0.002678,0.000431,0.101192
9841000,0.0324,0.013523,0.002678,0.000431,0.512540
9842000,0.0324,0.013523,0.002678,0.000431,0.188280
9843000,0.0324,0.013523,0.002678,0.000431,0.123522
9844000,0.0324,0.013523,0.002678,0.000431,0.084855
9845000,0.0324,0.013523,0.002678,0.000431,0.054533
9846000,0.0324,0.013523,0.002678,0.000431,0.049832
9847000,0.0324,0.013523,0.002678,0.000431,0.025269
9848000,0.0324,0.013523,0.002678,0.000431,0.018569
9849000,0.0324,0.013523,0.002678,0.000431,0.016924
9850000,0.0324,0.013523,0.002678,0.000431,0.016924
9851000,0.0324,0.013523,0.002678,0.000431,0.012340
9852000,0.0324,0.013523,0.002678,0.000431,0.010225
9853000,0.0324,0.013523,0.002678,0.000431,0.010342
9854000,0.0324,0.013523,0.002678,0.000431,0.007287
9855000,0.0324,0.013523,0.002678,0.000431,0.008462
9856000,0.0324,0.013523,0.002678,0.000431,0.009755
9857000,0.0324,0.013523,0.002678,0.000431,0.007404
9858000,0.0324,0.013523,0.002678,0.000431,0.006347
9859000,0.0324,0.013523,0.002678,0.000431,0.003643
9860000,0.0324,0.013523,0.002678,0.000431,0.004584
9861000,0.0324,0.013523,0.002678,0.000431,0.003291
9862000,0.0324,0.013523,0.002678,0.000431,0.002821
9863000,0.0324,0.013523,0.002678,0.000431,0.001645
9864000,0.0324,0.013523,0.002678,0.000431,0.001763
9865000,0.0324,0.013523,0.002678,0.000431,0.248220
9866000,0.0324,0.013523,0.002678,0.000431,0.748772
9867000,0.0324,0.013523,0.002678,0.000431,0.329667
9868000,0.0324,0.013523,0.002678,0.000431,0.132572
9869000,0.0324,0.013523,0.002678,0.000431,0.133982
9870000,0.0324,0.013523,0.002678,0.000431,0.572362
9871000,0.0324,0.013523,0.002678,0.000431,0.229768
9872000,0.0324,0.013523,0.002678,0.000431,0.272900
9873000,0.0324,0.013523,0.002678,0.000431,0.229650
9874000,0.0324,0.013523,0.002678,0.000431,0.145147
9875000,0.0324,0.013523,0.002678,0.000431,0.179466
9876000,0.0324,0.013523,0.002678,0.000431,0.110712
9877000,0.0324,0.013523,0.002678,0.000431,0.484686
9878000,0.0324,0.013523,0.002678,0.000431,0.086618
9879000,0.0324,0.013523,0.002678,0.000431,0.050302
9880000,0.0324,0.013523,0.002678,0.000431,0.039372
9881000,0.0324,0.013523,0.002678,0.000431,0.029970
9882000,0.0324,0.013523,0.002678,0.000431,0.022448
9883000,0.0324,0.013523,0.002678,0.000431,0.015984
9884000,0.0324,0.013523,0.002678,0.000431,0.016689
9885000,0.0324,0.013523,0.002678,0.000431,0.009285
9886000,0.0324,0.013523,0.002678,0.000431,0.012811
9887000,0.0324,0.013523,0.002678,0.000431,0.009520
9888000,0.0324,0.013523,0.002678,0.000431,0.007522
9889000,0.0324,0.013523,0.002678,0.000431,0.005994
9890000,0.0324,0.013523,0.002678,0.000431,0.003643
9891000,0.0324,0.013523,0.002678,0.000431,0.003291
9892000,0.0324,0.013523,0.002678,0.000431,0.003408
9893000,0.0324,0.013523,0.002678,0.000431,0.003291
9894000,0.0324,0.013523,0.002678,0.000431,0.003761
9895000,0.0324,0.013523,0.002678,0.000431,0.004584
9896000,0.0324,0.013523,0.002678,0.000431,0.002468
9897000,0.0324,0.013523,0.002678,0.000431,0.002703
9898000,0.0324,0.013523,0.002678,0.000431,0.002233
9899000,0.0324,0.013523,0.002678,0.000431,0.002703
9900000,0.0324,0.013523,0.002678,0.000431,0.002586
9901000,0.0324,0.013523,0.002678,0.000431,0.002351
9902000,0.0324,0.013523,0.002678,0.000431,0.003526
9903000,0.0324,0.013523,0.002678,0.000431,0.002703
9904000,0.0324,0.013523,0.002678,0.000431,0.001880
9905000,0.0324,0.013523,0.002678,0.000431,0.001528
9906000,0.0324,0.013523,0.002678,0.000431,0.001763
9907000,0.0324,0.013523,0.002678,0.000431,0.001763
9908000,0.0324,0.013523,0.002678,0.000431,0.001528
9909000,0.0324,0.013523,0.002678,0.000431,0.001763
9910000,0.0324,0.013523,0.002678,0.000431,0.001763
9911000,0.0324,0.013523,0.002678,0.000431,0.001763
9912000,0.0324,0.013523,0.002678,0.000431,0.001528
9913000,0.0324,0.013523,0.002678,0.000431,0.003643
9914000,0.0324,0.013523,0.002678,0.000431,0.000940
9915000,0.0324,0.013523,0.002678,0.000431,0.000823
9916000,0.0324,0.013523,0.002678,0.000431,0.000823
9917000,0.0324,0.013523,0.002678,0.000431,0.000940
9918000,0.0324,0.013523,0.002678,0.000431,0.000940
9919000,0.0324,0.013523,0.002678,0.000431,0.000823
9920000,0.0324,0.013523,0.002678,0.000431,0.000823
9921000,0.0324,0.013523,0.002678,0.000431,0.000940
9922000,0.0324,0.013523,0.002678,0.000431,0.000823
9923000,0.0324,0.013523,0.002678,0.000431,0.001058
9924000,0.0324,0.013523,0.002678,0.000431,0.222951
9925000,0.0324,0.013523,0.002678,0.000431,0.654044
9926000,0.0324,0.013523,0.002678,0.000431,0.335308
9927000,0.0324,0.013523,0.002678,0.000431,0.131749
9928000,0.0324,0.013523,0.002678,0.000431,0.155960
9929000,0.0324,0.013523,0.002678,0.000431,0.655690
9930000,0.0324,0.013523,0.002678,0.000431,0.227182
9931000,0.0324,0.013523,0.002678,0.000431,0.329196
9932000,0.0324,0.013523,0.002678,0.000431,0.201326
9933000,0.0324,0.013523,0.002678,0.000431,0.157253
9934000,0.0324,0.013523,0.002678,0.000431,0.098254
9935000,0.0324,0.013523,0.002678,0.000431,0.366805
9936000,0.0324,0.013523,0.002678,0.000431,0.297816
9937000,0.0324,0.013523,0.002678,0.000431,0.118586
9938000,0.0324,0.013523,0.002678,0.000431,0.082622
9939000,0.0324,0.013523,0.002678,0.000431,0.061820
9940000,0.0324,0.013523,0.002678,0.000431,0.041840
9941000,0.0324,0.013523,0.002678,0.000431,0.032320
9942000,0.0324,0.013523,0.002678,0.000431,0.026679
9943000,0.0324,0.013523,0.002678,0.000431,0.024446
9944000,0.0324,0.013523,0.002678,0.000431,0.020215
9945000,0.0324,0.013523,0.002678,0.000431,0.013868
9946000,0.0324,0.013523,0.002678,0.000431,0.004584
9947000,0.0324,0.013523,0.002678,0.000431,0.004349
9948000,0.0324,0.013523,0.002678,0.000431,0.004113
9949000,0.0324,0.013523,0.002678,0.000431,0.003996
9950000,0.0324,0.013523,0.002678,0.000431,0.004701
9951000,0.0324,0.013523,0.002678,0.000431,0.004113
9952000,0.0324,0.013523,0.002678,0.000431,0.004231
9953000,0.0324,0.013523,0.002678,0.000431,0.004466
9954000,0.0324,0.013523,0.002678,0.000431,0.004349
9955000,0.0324,0.013523,0.002678,0.000431,0.004349
9956000,0.0324,0.013523,0.002678,0.000431,0.003878
9957000,0.0324,0.013523,0.002678,0.000431,0.004584
9958000,0.0324,0.013523,0.002678,0.000431,0.004231
9959000,0.0324,0.013523,0.002678,0.000431,0.004231
9960000,0.0324,0.013523,0.002678,0.000431,0.004231
9961000,0.0324,0.013523,0.002678,0.000431,0.004349
9962000,0.0324,0.013523,0.002678,0.000431,0.004231
9963000,0.0324,0.013523,0.002678,0.000431,0.005876
9964000,0.0324,0.013523,0.002678,0.000431,0.003526
9965000,0.0324,0.013523,0.002678,0.000431,0.003761
9966000,0.0324,0.013523,0.002678,0.000431,0.003173
9967000,0.0324,0.013523,0.002678,0.000431,0.005641
9968000,0.0324,0.013523,0.002678,0.000431,0.003291
9969000,0.0324,0.013523,0.002678,0.000431,0.222716
9970000,0.0324,0.013523,0.002678,0.000431,0.574595
9971000,0.0324,0.013523,0.002678,0.000431,0.491738
9972000,0.0324,0.013523,0.002678,0.000431,0.134335
9973000,0.0324,0.013523,0.002678,0.000431,0.133512
9974000,0.0324,0.013523,0.002678,0.000431,0.580589
9975000,0.0324,0.013523,0.002678,0.000431,0.222481
9976000,0.0324,0.013523,0.002678,0.000431,0.285829
9977000,0.0324,0.013523,0.002678,0.000431,0.258562
9978000,0.0324,0.013523,0.002678,0.000431,0.146910
9979000,0.0324,0.013523,0.002678,0.000431,0.169358
9980000,0.0324,0.013523,0.002678,0.000431,0.137273
9981000,0.0324,0.013523,0.002678,0.000431,0.483393
9982000,0.0324,0.013523,0.002678,0.000431,0.141151
9983000,0.0324,0.013523,0.002678,0.000431,0.093787
9984000,0.0324,0.013523,0.002678,0.000431,0.067579
9985000,0.0324,0.013523,0.002678,0.000431,0.050772
9986000,0.0324,0.013523,0.002678,0.000431,0.043368
9987000,0.0324,0.013523,0.002678,0.000431,0.036199
9988000,0.0324,0.013523,0.002678,0.000431,0.021625
9989000,0.0324,0.013523,0.002678,0.000431,0.020920
9990000,0.0324,0.013523,0.002678,0.000431,0.013751
9991000,0.0324,0.013523,0.002678,0.000431,0.016689
9992000,0.0324,0.013523,0.002678,0.000431,0.006817
9993000,0.0324,0.013523,0.002678,0.000431,0.006582
9994000,0.0324,0.013523,0.002678,0.000431,0.007874
9995000,0.0324,0.013523,0.002678,0.000431,0.007287
9996000,0.0324,0.013523,0.002678,0.000431,0.005994
9997000,0.0324,0.013523,0.002678,0.000431,0.007992
9998000,0.0324,0.013523,0.002678,0.000431,0.005171
9999000,0.0324,0.013523,0.002678,0.000431,0.008815
