Cycle,Area(mm^2),PeakDynamic(W),SubthresholdLeakage(W),GateLeakage(W),RunTimeDynamic(W)
70000000,0.0324,0.013523,0.002678,0.000431,0.007757
70001000,0.0324,0.013523,0.002678,0.000431,0.011635
70002000,0.0324,0.013523,0.002678,0.000431,0.010342
70003000,0.0324,0.013523,0.002678,0.000431,0.003526
70004000,0.0324,0.013523,0.002678,0.000431,0.004819
70005000,0.0324,0.013523,0.002678,0.000431,0.001763
70006000,0.0324,0.013523,0.002678,0.000431,0.001763
70007000,0.0324,0.013523,0.002678,0.000431,0.001528
70008000,0.0324,0.013523,0.002678,0.000431,0.001763
70009000,0.0324,0.013523,0.002678,0.000431,0.001880
70010000,0.0324,0.013523,0.002678,0.000431,0.003291
70011000,0.0324,0.013523,0.002678,0.000431,0.001058
70012000,0.0324,0.013523,0.002678,0.000431,0.000940
70013000,0.0324,0.013523,0.002678,0.000431,0.000940
70014000,0.0324,0.013523,0.002678,0.000431,0.000940
70015000,0.0324,0.013523,0.002678,0.000431,0.000940
70016000,0.0324,0.013523,0.002678,0.000431,0.000823
70017000,0.0324,0.013523,0.002678,0.000431,0.000823
70018000,0.0324,0.013523,0.002678,0.000431,0.000940
70019000,0.0324,0.013523,0.002678,0.000431,0.000940
70020000,0.0324,0.013523,0.002678,0.000431,0.000940
70021000,0.0324,0.013523,0.002678,0.000431,0.000940
70022000,0.0324,0.013523,0.002678,0.000431,0.015161
70023000,0.0324,0.013523,0.002678,0.000431,0.797664
70024000,0.0324,0.013523,0.002678,0.000431,0.554028
70025000,0.0324,0.013523,0.002678,0.000431,0.137038
70026000,0.0324,0.013523,0.002678,0.000431,0.161131
70027000,0.0324,0.013523,0.002678,0.000431,0.580942
70028000,0.0324,0.013523,0.002678,0.000431,0.234939
70029000,0.0324,0.013523,0.002678,0.000431,0.301107
70030000,0.0324,0.013523,0.002678,0.000431,0.157840
70031000,0.0324,0.013523,0.002678,0.000431,0.146793
70032000,0.0324,0.013523,0.002678,0.000431,0.243283
70033000,0.0324,0.013523,0.002678,0.000431,0.505019
70034000,0.0324,0.013523,0.002678,0.000431,0.204617
70035000,0.0324,0.013523,0.002678,0.000431,0.173237
70036000,0.0324,0.013523,0.002678,0.000431,0.149378
70037000,0.0324,0.013523,0.002678,0.000431,0.131161
70038000,0.0324,0.013523,0.002678,0.000431,0.095550
70039000,0.0324,0.013523,0.002678,0.000431,0.095198
70040000,0.0324,0.013523,0.002678,0.000431,0.080272
70041000,0.0324,0.013523,0.002678,0.000431,0.081800
70042000,0.0324,0.013523,0.002678,0.000431,0.055003
70043000,0.0324,0.013523,0.002678,0.000431,0.044073
70044000,0.0324,0.013523,0.002678,0.000431,0.030205
70045000,0.0324,0.013523,0.002678,0.000431,0.029970
70046000,0.0324,0.013523,0.002678,0.000431,0.026326
70047000,0.0324,0.013523,0.002678,0.000431,0.025034
70048000,0.0324,0.013523,0.002678,0.000431,0.010342
70049000,0.0324,0.013523,0.002678,0.000431,0.015161
70050000,0.0324,0.013523,0.002678,0.000431,0.008932
70051000,0.0324,0.013523,0.002678,0.000431,0.005641
70052000,0.0324,0.013523,0.002678,0.000431,0.014926
70053000,0.0324,0.013523,0.002678,0.000431,0.003173
70054000,0.0324,0.013523,0.002678,0.000431,0.001645
70055000,0.0324,0.013523,0.002678,0.000431,0.001763
70056000,0.0324,0.013523,0.002678,0.000431,0.003526
70057000,0.0324,0.013523,0.002678,0.000431,0.021390
70058000,0.0324,0.013523,0.002678,0.000431,0.807536
70059000,0.0324,0.013523,0.002678,0.000431,0.538279
70060000,0.0324,0.013523,0.002678,0.000431,0.142562
70061000,0.0324,0.013523,0.002678,0.000431,0.136920
70062000,0.0324,0.013523,0.002678,0.000431,0.523941
70063000,0.0324,0.013523,0.002678,0.000431,0.233411
70064000,0.0324,0.013523,0.002678,0.000431,0.302518
70065000,0.0324,0.013523,0.002678,0.000431,0.155960
70066000,0.0324,0.013523,0.002678,0.000431,0.197447
70067000,0.0324,0.013523,0.002678,0.000431,0.085796
70068000,0.0324,0.013523,0.002678,0.000431,0.586231
70069000,0.0324,0.013523,0.002678,0.000431,0.230590
70070000,0.0324,0.013523,0.002678,0.000431,0.177820
70071000,0.0324,0.013523,0.002678,0.000431,0.151259
70072000,0.0324,0.013523,0.002678,0.000431,0.135510
70073000,0.0324,0.013523,0.002678,0.000431,0.105305
70074000,0.0324,0.013523,0.002678,0.000431,0.092847
70075000,0.0324,0.013523,0.002678,0.000431,0.081565
70076000,0.0324,0.013523,0.002678,0.000431,0.069224
70077000,0.0324,0.013523,0.002678,0.000431,0.062407
70078000,0.0324,0.013523,0.002678,0.000431,0.050420
70079000,0.0324,0.013523,0.002678,0.000431,0.048422
70080000,0.0324,0.013523,0.002678,0.000431,0.040900
70081000,0.0324,0.013523,0.002678,0.000431,0.022918
70082000,0.0324,0.013523,0.002678,0.000431,0.022330
70083000,0.0324,0.013523,0.002678,0.000431,0.020802
70084000,0.0324,0.013523,0.002678,0.000431,0.022565
70085000,0.0324,0.013523,0.002678,0.000431,0.010578
70086000,0.0324,0.013523,0.002678,0.000431,0.007169
70087000,0.0324,0.013523,0.002678,0.000431,0.008345
70088000,0.0324,0.013523,0.002678,0.000431,0.008815
70089000,0.0324,0.013523,0.002678,0.000431,0.009050
70090000,0.0324,0.013523,0.002678,0.000431,0.009990
70091000,0.0324,0.013523,0.002678,0.000431,0.392779
70092000,0.0324,0.013523,0.002678,0.000431,0.813177
70093000,0.0324,0.013523,0.002678,0.000431,0.236937
70094000,0.0324,0.013523,0.002678,0.000431,0.139153
70095000,0.0324,0.013523,0.002678,0.000431,0.492796
70096000,0.0324,0.013523,0.002678,0.000431,0.237877
70097000,0.0324,0.013523,0.002678,0.000431,0.307689
70098000,0.0324,0.013523,0.002678,0.000431,0.162541
70099000,0.0324,0.013523,0.002678,0.000431,0.188045
70100000,0.0324,0.013523,0.002678,0.000431,0.128458
70101000,0.0324,0.013523,0.002678,0.000431,0.560962
70102000,0.0324,0.013523,0.002678,0.000431,0.231060
70103000,0.0324,0.013523,0.002678,0.000431,0.177938
70104000,0.0324,0.013523,0.002678,0.000431,0.142092
70105000,0.0324,0.013523,0.002678,0.000431,0.121524
70106000,0.0324,0.013523,0.002678,0.000431,0.087794
70107000,0.0324,0.013523,0.002678,0.000431,0.073808
70108000,0.0324,0.013523,0.002678,0.000431,0.059822
70109000,0.0324,0.013523,0.002678,0.000431,0.054533
70110000,0.0324,0.013523,0.002678,0.000431,0.040900
70111000,0.0324,0.013523,0.002678,0.000431,0.023506
70112000,0.0324,0.013523,0.002678,0.000431,0.026914
70113000,0.0324,0.013523,0.002678,0.000431,0.021860
70114000,0.0324,0.013523,0.002678,0.000431,0.010225
70115000,0.0324,0.013523,0.002678,0.000431,0.012105
70116000,0.0324,0.013523,0.002678,0.000431,0.009637
70117000,0.0324,0.013523,0.002678,0.000431,0.008697
70118000,0.0324,0.013523,0.002678,0.000431,0.002586
70119000,0.0324,0.013523,0.002678,0.000431,0.002351
70120000,0.0324,0.013523,0.002678,0.000431,0.002821
70121000,0.0324,0.013523,0.002678,0.000431,0.003996
70122000,0.0324,0.013523,0.002678,0.000431,0.003056
70123000,0.0324,0.013523,0.002678,0.000431,0.000705
70124000,0.0324,0.013523,0.002678,0.000431,0.000940
70125000,0.0324,0.013523,0.002678,0.000431,0.000940
70126000,0.0324,0.013523,0.002678,0.000431,0.028207
70127000,0.0324,0.013523,0.002678,0.000431,0.813177
70128000,0.0324,0.013523,0.002678,0.000431,0.540865
70129000,0.0324,0.013523,0.002678,0.000431,0.135863
70130000,0.0324,0.013523,0.002678,0.000431,0.245986
70131000,0.0324,0.013523,0.002678,0.000431,0.451308
70132000,0.0324,0.013523,0.002678,0.000431,0.328491
70133000,0.0324,0.013523,0.002678,0.000431,0.253626
70134000,0.0324,0.013523,0.002678,0.000431,0.178408
70135000,0.0324,0.013523,0.002678,0.000431,0.103072
70136000,0.0324,0.013523,0.002678,0.000431,0.528407
70137000,0.0324,0.013523,0.002678,0.000431,0.253861
70138000,0.0324,0.013523,0.002678,0.000431,0.166302
70139000,0.0324,0.013523,0.002678,0.000431,0.147615
70140000,0.0324,0.013523,0.002678,0.000431,0.115413
70141000,0.0324,0.013523,0.002678,0.000431,0.094728
70142000,0.0324,0.013523,0.002678,0.000431,0.073808
70143000,0.0324,0.013523,0.002678,0.000431,0.075218
70144000,0.0324,0.013523,0.002678,0.000431,0.062290
70145000,0.0324,0.013523,0.002678,0.000431,0.047364
70146000,0.0324,0.013523,0.002678,0.000431,0.038549
70147000,0.0324,0.013523,0.002678,0.000431,0.026444
70148000,0.0324,0.013523,0.002678,0.000431,0.023741
70149000,0.0324,0.013523,0.002678,0.000431,0.022800
70150000,0.0324,0.013523,0.002678,0.000431,0.021038
70151000,0.0324,0.013523,0.002678,0.000431,0.013516
70152000,0.0324,0.013523,0.002678,0.000431,0.013046
70153000,0.0324,0.013523,0.002678,0.000431,0.009637
70154000,0.0324,0.013523,0.002678,0.000431,0.001763
70155000,0.0324,0.013523,0.002678,0.000431,0.003761
70156000,0.0324,0.013523,0.002678,0.000431,0.001058
70157000,0.0324,0.013523,0.002678,0.000431,0.056061
70158000,0.0324,0.013523,0.002678,0.000431,0.764051
70159000,0.0324,0.013523,0.002678,0.000431,0.547681
70160000,0.0324,0.013523,0.002678,0.000431,0.141269
70161000,0.0324,0.013523,0.002678,0.000431,0.222363
70162000,0.0324,0.013523,0.002678,0.000431,0.492913
70163000,0.0324,0.013523,0.002678,0.000431,0.282538
70164000,0.0324,0.013523,0.002678,0.000431,0.289472
70165000,0.0324,0.013523,0.002678,0.000431,0.161131
70166000,0.0324,0.013523,0.002678,0.000431,0.115178
70167000,0.0324,0.013523,0.002678,0.000431,0.516889
70168000,0.0324,0.013523,0.002678,0.000431,0.386315
70169000,0.0324,0.013523,0.002678,0.000431,0.253861
70170000,0.0324,0.013523,0.002678,0.000431,0.226712
70171000,0.0324,0.013523,0.002678,0.000431,0.188280
70172000,0.0324,0.013523,0.002678,0.000431,0.154667
70173000,0.0324,0.013523,0.002678,0.000431,0.143854
70174000,0.0324,0.013523,0.002678,0.000431,0.106010
70175000,0.0324,0.013523,0.002678,0.000431,0.095433
70176000,0.0324,0.013523,0.002678,0.000431,0.084973
70177000,0.0324,0.013523,0.002678,0.000431,0.060057
70178000,0.0324,0.013523,0.002678,0.000431,0.065228
70179000,0.0324,0.013523,0.002678,0.000431,0.045248
70180000,0.0324,0.013523,0.002678,0.000431,0.050185
70181000,0.0324,0.013523,0.002678,0.000431,0.035494
70182000,0.0324,0.013523,0.002678,0.000431,0.024211
70183000,0.0324,0.013523,0.002678,0.000431,0.028442
70184000,0.0324,0.013523,0.002678,0.000431,0.020450
70185000,0.0324,0.013523,0.002678,0.000431,0.016807
70186000,0.0324,0.013523,0.002678,0.000431,0.008462
70187000,0.0324,0.013523,0.002678,0.000431,0.005524
70188000,0.0324,0.013523,0.002678,0.000431,0.005406
70189000,0.0324,0.013523,0.002678,0.000431,0.011400
70190000,0.0324,0.013523,0.002678,0.000431,0.005054
70191000,0.0324,0.013523,0.002678,0.000431,0.006464
70192000,0.0324,0.013523,0.002678,0.000431,0.001998
70193000,0.0324,0.013523,0.002678,0.000431,0.001998
70194000,0.0324,0.013523,0.002678,0.000431,0.001763
70195000,0.0324,0.013523,0.002678,0.000431,0.005406
70196000,0.0324,0.013523,0.002678,0.000431,0.000823
70197000,0.0324,0.013523,0.002678,0.000431,0.000705
70198000,0.0324,0.013523,0.002678,0.000431,0.000940
70199000,0.0324,0.013523,0.002678,0.000431,0.000940
70200000,0.0324,0.013523,0.002678,0.000431,0.000705
70201000,0.0324,0.013523,0.002678,0.000431,0.000940
70202000,0.0324,0.013523,0.002678,0.000431,0.000705
70203000,0.0324,0.013523,0.002678,0.000431,0.000940
70204000,0.0324,0.013523,0.002678,0.000431,0.000705
70205000,0.0324,0.013523,0.002678,0.000431,0.003761
70206000,0.0324,0.013523,0.002678,0.000431,0.740192
70207000,0.0324,0.013523,0.002678,0.000431,0.684719
70208000,0.0324,0.013523,0.002678,0.000431,0.187928
70209000,0.0324,0.013523,0.002678,0.000431,0.150671
70210000,0.0324,0.013523,0.002678,0.000431,0.561902
70211000,0.0324,0.013523,0.002678,0.000431,0.282890
70212000,0.0324,0.013523,0.002678,0.000431,0.329549
70213000,0.0324,0.013523,0.002678,0.000431,0.151846
70214000,0.0324,0.013523,0.002678,0.000431,0.109301
70215000,0.0324,0.013523,0.002678,0.000431,0.467762
70216000,0.0324,0.013523,0.002678,0.000431,0.357521
70217000,0.0324,0.013523,0.002678,0.000431,0.186987
70218000,0.0324,0.013523,0.002678,0.000431,0.181816
70219000,0.0324,0.013523,0.002678,0.000431,0.155842
70220000,0.0324,0.013523,0.002678,0.000431,0.118703
70221000,0.0324,0.013523,0.002678,0.000431,0.105305
70222000,0.0324,0.013523,0.002678,0.000431,0.088381
70223000,0.0324,0.013523,0.002678,0.000431,0.062407
70224000,0.0324,0.013523,0.002678,0.000431,0.054651
70225000,0.0324,0.013523,0.002678,0.000431,0.037256
70226000,0.0324,0.013523,0.002678,0.000431,0.030440
70227000,0.0324,0.013523,0.002678,0.000431,0.029852
70228000,0.0324,0.013523,0.002678,0.000431,0.022213
70229000,0.0324,0.013523,0.002678,0.000431,0.011870
70230000,0.0324,0.013523,0.002678,0.000431,0.011400
70231000,0.0324,0.013523,0.002678,0.000431,0.006699
70232000,0.0324,0.013523,0.002678,0.000431,0.006347
70233000,0.0324,0.013523,0.002678,0.000431,0.020450
70234000,0.0324,0.013523,0.002678,0.000431,0.003996
70235000,0.0324,0.013523,0.002678,0.000431,0.002351
70236000,0.0324,0.013523,0.002678,0.000431,0.018922
70237000,0.0324,0.013523,0.002678,0.000431,0.787204
70238000,0.0324,0.013523,0.002678,0.000431,0.599276
70239000,0.0324,0.013523,0.002678,0.000431,0.143502
70240000,0.0324,0.013523,0.002678,0.000431,0.176880
70241000,0.0324,0.013523,0.002678,0.000431,0.502315
70242000,0.0324,0.013523,0.002678,0.000431,0.312390
70243000,0.0324,0.013523,0.002678,0.000431,0.283360
70244000,0.0324,0.013523,0.002678,0.000431,0.176410
70245000,0.0324,0.013523,0.002678,0.000431,0.103190
70246000,0.0324,0.013523,0.002678,0.000431,0.559082
70247000,0.0324,0.013523,0.002678,0.000431,0.256211
70248000,0.0324,0.013523,0.002678,0.000431,0.191336
70249000,0.0324,0.013523,0.002678,0.000431,0.171944
70250000,0.0324,0.013523,0.002678,0.000431,0.137626
70251000,0.0324,0.013523,0.002678,0.000431,0.113415
70252000,0.0324,0.013523,0.002678,0.000431,0.100487
70253000,0.0324,0.013523,0.002678,0.000431,0.084738
70254000,0.0324,0.013523,0.002678,0.000431,0.062995
70255000,0.0324,0.013523,0.002678,0.000431,0.036081
70256000,0.0324,0.013523,0.002678,0.000431,0.026444
70257000,0.0324,0.013523,0.002678,0.000431,0.017042
70258000,0.0324,0.013523,0.002678,0.000431,0.023741
70259000,0.0324,0.013523,0.002678,0.000431,0.017394
70260000,0.0324,0.013523,0.002678,0.000431,0.014691
70261000,0.0324,0.013523,0.002678,0.000431,0.018805
70262000,0.0324,0.013523,0.002678,0.000431,0.011400
70263000,0.0324,0.013523,0.002678,0.000431,0.007404
70264000,0.0324,0.013523,0.002678,0.000431,0.014103
70265000,0.0324,0.013523,0.002678,0.000431,0.003643
70266000,0.0324,0.013523,0.002678,0.000431,0.001880
70267000,0.0324,0.013523,0.002678,0.000431,0.018334
70268000,0.0324,0.013523,0.002678,0.000431,0.810474
70269000,0.0324,0.013523,0.002678,0.000431,0.570834
70270000,0.0324,0.013523,0.002678,0.000431,0.141386
70271000,0.0324,0.013523,0.002678,0.000431,0.167478
70272000,0.0324,0.013523,0.002678,0.000431,0.574595
70273000,0.0324,0.013523,0.002678,0.000431,0.268199
70274000,0.0324,0.013523,0.002678,0.000431,0.282303
70275000,0.0324,0.013523,0.002678,0.000431,0.165480
70276000,0.0324,0.013523,0.002678,0.000431,0.100604
70277000,0.0324,0.013523,0.002678,0.000431,0.542275
70278000,0.0324,0.013523,0.002678,0.000431,0.315681
70279000,0.0324,0.013523,0.002678,0.000431,0.228710
70280000,0.0324,0.013523,0.002678,0.000431,0.193569
70281000,0.0324,0.013523,0.002678,0.000431,0.147733
70282000,0.0324,0.013523,0.002678,0.000431,0.138801
70283000,0.0324,0.013523,0.002678,0.000431,0.101779
70284000,0.0324,0.013523,0.002678,0.000431,0.079449
70285000,0.0324,0.013523,0.002678,0.000431,0.060997
70286000,0.0324,0.013523,0.002678,0.000431,0.066286
70287000,0.0324,0.013523,0.002678,0.000431,0.049362
70288000,0.0324,0.013523,0.002678,0.000431,0.025856
70289000,0.0324,0.013523,0.002678,0.000431,0.031850
70290000,0.0324,0.013523,0.002678,0.000431,0.016924
70291000,0.0324,0.013523,0.002678,0.000431,0.010813
70292000,0.0324,0.013523,0.002678,0.000431,0.011518
70293000,0.0324,0.013523,0.002678,0.000431,0.008697
70294000,0.0324,0.013523,0.002678,0.000431,0.007169
70295000,0.0324,0.013523,0.002678,0.000431,0.003291
70296000,0.0324,0.013523,0.002678,0.000431,0.003408
70297000,0.0324,0.013523,0.002678,0.000431,0.003408
70298000,0.0324,0.013523,0.002678,0.000431,0.003291
70299000,0.0324,0.013523,0.002678,0.000431,0.003056
70300000,0.0324,0.013523,0.002678,0.000431,0.005641
70301000,0.0324,0.013523,0.002678,0.000431,0.007169
70302000,0.0324,0.013523,0.002678,0.000431,0.000823
70303000,0.0324,0.013523,0.002678,0.000431,0.000940
70304000,0.0324,0.013523,0.002678,0.000431,0.000705
70305000,0.0324,0.013523,0.002678,0.000431,0.000940
70306000,0.0324,0.013523,0.002678,0.000431,0.000823
70307000,0.0324,0.013523,0.002678,0.000431,0.000823
70308000,0.0324,0.013523,0.002678,0.000431,0.000823
70309000,0.0324,0.013523,0.002678,0.000431,0.000823
70310000,0.0324,0.013523,0.002678,0.000431,0.000823
70311000,0.0324,0.013523,0.002678,0.000431,0.000823
70312000,0.0324,0.013523,0.002678,0.000431,0.000823
70313000,0.0324,0.013523,0.002678,0.000431,0.000823
70314000,0.0324,0.013523,0.002678,0.000431,0.000940
70315000,0.0324,0.013523,0.002678,0.000431,0.000823
70316000,0.0324,0.013523,0.002678,0.000431,0.000823
70317000,0.0324,0.013523,0.002678,0.000431,0.000823
70318000,0.0324,0.013523,0.002678,0.000431,0.000823
70319000,0.0324,0.013523,0.002678,0.000431,0.000705
70320000,0.0324,0.013523,0.002678,0.000431,0.000940
70321000,0.0324,0.013523,0.002678,0.000431,0.000940
70322000,0.0324,0.013523,0.002678,0.000431,0.000705
70323000,0.0324,0.013523,0.002678,0.000431,0.032203
70324000,0.0324,0.013523,0.002678,0.000431,0.855370
70325000,0.0324,0.013523,0.002678,0.000431,0.530875
70326000,0.0324,0.013523,0.002678,0.000431,0.149848
70327000,0.0324,0.013523,0.002678,0.000431,0.225654
70328000,0.0324,0.013523,0.002678,0.000431,0.484334
70329000,0.0324,0.013523,0.002678,0.000431,0.250805
70330000,0.0324,0.013523,0.002678,0.000431,0.273958
70331000,0.0324,0.013523,0.002678,0.000431,0.170533
70332000,0.0324,0.013523,0.002678,0.000431,0.110241
70333000,0.0324,0.013523,0.002678,0.000431,0.390311
70334000,0.0324,0.013523,0.002678,0.000431,0.411936
70335000,0.0324,0.013523,0.002678,0.000431,0.177232
70336000,0.0324,0.013523,0.002678,0.000431,0.169946
70337000,0.0324,0.013523,0.002678,0.000431,0.143502
70338000,0.0324,0.013523,0.002678,0.000431,0.104953
70339000,0.0324,0.013523,0.002678,0.000431,0.088851
70340000,0.0324,0.013523,0.002678,0.000431,0.074043
70341000,0.0324,0.013523,0.002678,0.000431,0.069459
70342000,0.0324,0.013523,0.002678,0.000431,0.043250
70343000,0.0324,0.013523,0.002678,0.000431,0.035611
70344000,0.0324,0.013523,0.002678,0.000431,0.027384
70345000,0.0324,0.013523,0.002678,0.000431,0.024446
70346000,0.0324,0.013523,0.002678,0.000431,0.013986
70347000,0.0324,0.013523,0.002678,0.000431,0.015866
70348000,0.0324,0.013523,0.002678,0.000431,0.011165
70349000,0.0324,0.013523,0.002678,0.000431,0.009285
70350000,0.0324,0.013523,0.002678,0.000431,0.006817
70351000,0.0324,0.013523,0.002678,0.000431,0.003526
70352000,0.0324,0.013523,0.002678,0.000431,0.010225
70353000,0.0324,0.013523,0.002678,0.000431,0.000823
70354000,0.0324,0.013523,0.002678,0.000431,0.000940
70355000,0.0324,0.013523,0.002678,0.000431,0.000705
70356000,0.0324,0.013523,0.002678,0.000431,0.000823
70357000,0.0324,0.013523,0.002678,0.000431,0.000940
70358000,0.0324,0.013523,0.002678,0.000431,0.000823
70359000,0.0324,0.013523,0.002678,0.000431,0.000823
70360000,0.0324,0.013523,0.002678,0.000431,0.000823
70361000,0.0324,0.013523,0.002678,0.000431,0.000823
70362000,0.0324,0.013523,0.002678,0.000431,0.000823
70363000,0.0324,0.013523,0.002678,0.000431,0.000940
70364000,0.0324,0.013523,0.002678,0.000431,0.000940
70365000,0.0324,0.013523,0.002678,0.000431,0.000940
70366000,0.0324,0.013523,0.002678,0.000431,0.000940
70367000,0.0324,0.013523,0.002678,0.000431,0.177703
70368000,0.0324,0.013523,0.002678,0.000431,0.768164
70369000,0.0324,0.013523,0.002678,0.000431,0.477282
70370000,0.0324,0.013523,0.002678,0.000431,0.140916
70371000,0.0324,0.013523,0.002678,0.000431,0.485744
70372000,0.0324,0.013523,0.002678,0.000431,0.272665
70373000,0.0324,0.013523,0.002678,0.000431,0.280540
70374000,0.0324,0.013523,0.002678,0.000431,0.191101
70375000,0.0324,0.013523,0.002678,0.000431,0.198623
70376000,0.0324,0.013523,0.002678,0.000431,0.093435
70377000,0.0324,0.013523,0.002678,0.000431,0.571892
70378000,0.0324,0.013523,0.002678,0.000431,0.247984
70379000,0.0324,0.013523,0.002678,0.000431,0.179583
70380000,0.0324,0.013523,0.002678,0.000431,0.153962
70381000,0.0324,0.013523,0.002678,0.000431,0.133747
70382000,0.0324,0.013523,0.002678,0.000431,0.114708
70383000,0.0324,0.013523,0.002678,0.000431,0.098606
70384000,0.0324,0.013523,0.002678,0.000431,0.054298
70385000,0.0324,0.013523,0.002678,0.000431,0.047246
70386000,0.0324,0.013523,0.002678,0.000431,0.032438
70387000,0.0324,0.013523,0.002678,0.000431,0.027267
70388000,0.0324,0.013523,0.002678,0.000431,0.011753
70389000,0.0324,0.013523,0.002678,0.000431,0.008815
70390000,0.0324,0.013523,0.002678,0.000431,0.006582
70391000,0.0324,0.013523,0.002678,0.000431,0.010225
70392000,0.0324,0.013523,0.002678,0.000431,0.009990
70393000,0.0324,0.013523,0.002678,0.000431,0.003761
70394000,0.0324,0.013523,0.002678,0.000431,0.014338
70395000,0.0324,0.013523,0.002678,0.000431,0.830924
70396000,0.0324,0.013523,0.002678,0.000431,0.528054
70397000,0.0324,0.013523,0.002678,0.000431,0.151494
70398000,0.0324,0.013523,0.002678,0.000431,0.235409
70399000,0.0324,0.013523,0.002678,0.000431,0.462826
70400000,0.0324,0.013523,0.002678,0.000431,0.330137
70401000,0.0324,0.013523,0.002678,0.000431,0.250805
70402000,0.0324,0.013523,0.002678,0.000431,0.178995
70403000,0.0324,0.013523,0.002678,0.000431,0.108126
70404000,0.0324,0.013523,0.002678,0.000431,0.589169
70405000,0.0324,0.013523,0.002678,0.000431,0.247749
70406000,0.0324,0.013523,0.002678,0.000431,0.211668
70407000,0.0324,0.013523,0.002678,0.000431,0.182991
70408000,0.0324,0.013523,0.002678,0.000431,0.149848
70409000,0.0324,0.013523,0.002678,0.000431,0.101427
70410000,0.0324,0.013523,0.002678,0.000431,0.098019
70411000,0.0324,0.013523,0.002678,0.000431,0.090614
70412000,0.0324,0.013523,0.002678,0.000431,0.055591
70413000,0.0324,0.013523,0.002678,0.000431,0.050537
70414000,0.0324,0.013523,0.002678,0.000431,0.031380
70415000,0.0324,0.013523,0.002678,0.000431,0.019627
70416000,0.0324,0.013523,0.002678,0.000431,0.012811
70417000,0.0324,0.013523,0.002678,0.000431,0.010578
70418000,0.0324,0.013523,0.002678,0.000431,0.008227
70419000,0.0324,0.013523,0.002678,0.000431,0.004819
70420000,0.0324,0.013523,0.002678,0.000431,0.004584
70421000,0.0324,0.013523,0.002678,0.000431,0.006347
70422000,0.0324,0.013523,0.002678,0.000431,0.003526
70423000,0.0324,0.013523,0.002678,0.000431,0.005994
70424000,0.0324,0.013523,0.002678,0.000431,0.002351
70425000,0.0324,0.013523,0.002678,0.000431,0.004936
70426000,0.0324,0.013523,0.002678,0.000431,0.001645
70427000,0.0324,0.013523,0.002678,0.000431,0.001763
70428000,0.0324,0.013523,0.002678,0.000431,0.001763
70429000,0.0324,0.013523,0.002678,0.000431,0.001763
70430000,0.0324,0.013523,0.002678,0.000431,0.003408
70431000,0.0324,0.013523,0.002678,0.000431,0.000823
70432000,0.0324,0.013523,0.002678,0.000431,0.000940
70433000,0.0324,0.013523,0.002678,0.000431,0.000705
70434000,0.0324,0.013523,0.002678,0.000431,0.000940
70435000,0.0324,0.013523,0.002678,0.000431,0.039254
70436000,0.0324,0.013523,0.002678,0.000431,0.868651
70437000,0.0324,0.013523,0.002678,0.000431,0.529582
70438000,0.0324,0.013523,0.002678,0.000431,0.147498
70439000,0.0324,0.013523,0.002678,0.000431,0.361282
70440000,0.0324,0.013523,0.002678,0.000431,0.438380
70441000,0.0324,0.013523,0.002678,0.000431,0.267494
70442000,0.0324,0.013523,0.002678,0.000431,0.194979
70443000,0.0324,0.013523,0.002678,0.000431,0.189808
70444000,0.0324,0.013523,0.002678,0.000431,0.109301
70445000,0.0324,0.013523,0.002678,0.000431,0.563430
70446000,0.0324,0.013523,0.002678,0.000431,0.209553
70447000,0.0324,0.013523,0.002678,0.000431,0.184167
70448000,0.0324,0.013523,0.002678,0.000431,0.157958
70449000,0.0324,0.013523,0.002678,0.000431,0.129751
70450000,0.0324,0.013523,0.002678,0.000431,0.111769
70451000,0.0324,0.013523,0.002678,0.000431,0.099546
70452000,0.0324,0.013523,0.002678,0.000431,0.079802
70453000,0.0324,0.013523,0.002678,0.000431,0.054416
70454000,0.0324,0.013523,0.002678,0.000431,0.040665
70455000,0.0324,0.013523,0.002678,0.000431,0.037962
70456000,0.0324,0.013523,0.002678,0.000431,0.022095
70457000,0.0324,0.013523,0.002678,0.000431,0.036081
70458000,0.0324,0.013523,0.002678,0.000431,0.015631
70459000,0.0324,0.013523,0.002678,0.000431,0.005171
70460000,0.0324,0.013523,0.002678,0.000431,0.005054
70461000,0.0324,0.013523,0.002678,0.000431,0.003996
70462000,0.0324,0.013523,0.002678,0.000431,0.000823
70463000,0.0324,0.013523,0.002678,0.000431,0.000823
70464000,0.0324,0.013523,0.002678,0.000431,0.015514
70465000,0.0324,0.013523,0.002678,0.000431,0.764873
70466000,0.0324,0.013523,0.002678,0.000431,0.554733
70467000,0.0324,0.013523,0.002678,0.000431,0.145030
70468000,0.0324,0.013523,0.002678,0.000431,0.137273
70469000,0.0324,0.013523,0.002678,0.000431,0.507369
70470000,0.0324,0.013523,0.002678,0.000431,0.271608
70471000,0.0324,0.013523,0.002678,0.000431,0.276544
70472000,0.0324,0.013523,0.002678,0.000431,0.154432
70473000,0.0324,0.013523,0.002678,0.000431,0.155490
70474000,0.0324,0.013523,0.002678,0.000431,0.221306
70475000,0.0324,0.013523,0.002678,0.000431,0.510307
70476000,0.0324,0.013523,0.002678,0.000431,0.204734
70477000,0.0324,0.013523,0.002678,0.000431,0.177938
70478000,0.0324,0.013523,0.002678,0.000431,0.150436
70479000,0.0324,0.013523,0.002678,0.000431,0.134100
70480000,0.0324,0.013523,0.002678,0.000431,0.103660
70481000,0.0324,0.013523,0.002678,0.000431,0.075688
70482000,0.0324,0.013523,0.002678,0.000431,0.069812
70483000,0.0324,0.013523,0.002678,0.000431,0.031498
70484000,0.0324,0.013523,0.002678,0.000431,0.039372
70485000,0.0324,0.013523,0.002678,0.000431,0.020097
70486000,0.0324,0.013523,0.002678,0.000431,0.014103
70487000,0.0324,0.013523,0.002678,0.000431,0.013986
70488000,0.0324,0.013523,0.002678,0.000431,0.011048
70489000,0.0324,0.013523,0.002678,0.000431,0.015631
70490000,0.0324,0.013523,0.002678,0.000431,0.006699
70491000,0.0324,0.013523,0.002678,0.000431,0.006229
70492000,0.0324,0.013523,0.002678,0.000431,0.006229
70493000,0.0324,0.013523,0.002678,0.000431,0.008345
70494000,0.0324,0.013523,0.002678,0.000431,0.007052
70495000,0.0324,0.013523,0.002678,0.000431,0.004231
70496000,0.0324,0.013523,0.002678,0.000431,0.003761
70497000,0.0324,0.013523,0.002678,0.000431,0.004231
70498000,0.0324,0.013523,0.002678,0.000431,0.003526
70499000,0.0324,0.013523,0.002678,0.000431,0.004701
70500000,0.0324,0.013523,0.002678,0.000431,0.003878
70501000,0.0324,0.013523,0.002678,0.000431,0.003996
70502000,0.0324,0.013523,0.002678,0.000431,0.003996
70503000,0.0324,0.013523,0.002678,0.000431,0.003878
70504000,0.0324,0.013523,0.002678,0.000431,0.004231
70505000,0.0324,0.013523,0.002678,0.000431,0.004231
70506000,0.0324,0.013523,0.002678,0.000431,0.003526
70507000,0.0324,0.013523,0.002678,0.000431,0.004231
70508000,0.0324,0.013523,0.002678,0.000431,0.003526
70509000,0.0324,0.013523,0.002678,0.000431,0.004349
70510000,0.0324,0.013523,0.002678,0.000431,0.004701
70511000,0.0324,0.013523,0.002678,0.000431,0.003643
70512000,0.0324,0.013523,0.002678,0.000431,0.004113
70513000,0.0324,0.013523,0.002678,0.000431,0.003996
70514000,0.0324,0.013523,0.002678,0.000431,0.004701
70515000,0.0324,0.013523,0.002678,0.000431,0.004701
70516000,0.0324,0.013523,0.002678,0.000431,0.005524
70517000,0.0324,0.013523,0.002678,0.000431,0.002938
70518000,0.0324,0.013523,0.002678,0.000431,0.008697
70519000,0.0324,0.013523,0.002678,0.000431,0.581294
70520000,0.0324,0.013523,0.002678,0.000431,0.738665
70521000,0.0324,0.013523,0.002678,0.000431,0.140681
70522000,0.0324,0.013523,0.002678,0.000431,0.154079
70523000,0.0324,0.013523,0.002678,0.000431,0.608443
70524000,0.0324,0.013523,0.002678,0.000431,0.237172
70525000,0.0324,0.013523,0.002678,0.000431,0.270197
70526000,0.0324,0.013523,0.002678,0.000431,0.156312
70527000,0.0324,0.013523,0.002678,0.000431,0.141386
70528000,0.0324,0.013523,0.002678,0.000431,0.254096
70529000,0.0324,0.013523,0.002678,0.000431,0.488330
70530000,0.0324,0.013523,0.002678,0.000431,0.188750
70531000,0.0324,0.013523,0.002678,0.000431,0.159486
70532000,0.0324,0.013523,0.002678,0.000431,0.138331
70533000,0.0324,0.013523,0.002678,0.000431,0.117881
70534000,0.0324,0.013523,0.002678,0.000431,0.108714
70535000,0.0324,0.013523,0.002678,0.000431,0.069224
70536000,0.0324,0.013523,0.002678,0.000431,0.062172
70537000,0.0324,0.013523,0.002678,0.000431,0.043250
70538000,0.0324,0.013523,0.002678,0.000431,0.035964
70539000,0.0324,0.013523,0.002678,0.000431,0.033496
70540000,0.0324,0.013523,0.002678,0.000431,0.033848
70541000,0.0324,0.013523,0.002678,0.000431,0.018334
70542000,0.0324,0.013523,0.002678,0.000431,0.015631
70543000,0.0324,0.013523,0.002678,0.000431,0.012811
70544000,0.0324,0.013523,0.002678,0.000431,0.005289
70545000,0.0324,0.013523,0.002678,0.000431,0.005524
70546000,0.0324,0.013523,0.002678,0.000431,0.015514
70547000,0.0324,0.013523,0.002678,0.000431,0.770397
70548000,0.0324,0.013523,0.002678,0.000431,0.536751
70549000,0.0324,0.013523,0.002678,0.000431,0.142444
70550000,0.0324,0.013523,0.002678,0.000431,0.182991
70551000,0.0324,0.013523,0.002678,0.000431,0.526526
70552000,0.0324,0.013523,0.002678,0.000431,0.313918
70553000,0.0324,0.013523,0.002678,0.000431,0.314740
70554000,0.0324,0.013523,0.002678,0.000431,0.149613
70555000,0.0324,0.013523,0.002678,0.000431,0.117058
70556000,0.0324,0.013523,0.002678,0.000431,0.480338
70557000,0.0324,0.013523,0.002678,0.000431,0.338364
70558000,0.0324,0.013523,0.002678,0.000431,0.217075
70559000,0.0324,0.013523,0.002678,0.000431,0.192629
70560000,0.0324,0.013523,0.002678,0.000431,0.158781
70561000,0.0324,0.013523,0.002678,0.000431,0.127753
70562000,0.0324,0.013523,0.002678,0.000431,0.090967
70563000,0.0324,0.013523,0.002678,0.000431,0.071457
70564000,0.0324,0.013523,0.002678,0.000431,0.045601
70565000,0.0324,0.013523,0.002678,0.000431,0.049362
70566000,0.0324,0.013523,0.002678,0.000431,0.027972
70567000,0.0324,0.013523,0.002678,0.000431,0.018334
70568000,0.0324,0.013523,0.002678,0.000431,0.014691
70569000,0.0324,0.013523,0.002678,0.000431,0.020567
70570000,0.0324,0.013523,0.002678,0.000431,0.009872
70571000,0.0324,0.013523,0.002678,0.000431,0.007052
70572000,0.0324,0.013523,0.002678,0.000431,0.010342
70573000,0.0324,0.013523,0.002678,0.000431,0.006229
70574000,0.0324,0.013523,0.002678,0.000431,0.011048
70575000,0.0324,0.013523,0.002678,0.000431,0.003291
70576000,0.0324,0.013523,0.002678,0.000431,0.003408
70577000,0.0324,0.013523,0.002678,0.000431,0.005876
70578000,0.0324,0.013523,0.002678,0.000431,0.001998
70579000,0.0324,0.013523,0.002678,0.000431,0.003056
70580000,0.0324,0.013523,0.002678,0.000431,0.002703
70581000,0.0324,0.013523,0.002678,0.000431,0.002233
70582000,0.0324,0.013523,0.002678,0.000431,0.002586
70583000,0.0324,0.013523,0.002678,0.000431,0.002233
70584000,0.0324,0.013523,0.002678,0.000431,0.001880
70585000,0.0324,0.013523,0.002678,0.000431,0.003408
70586000,0.0324,0.013523,0.002678,0.000431,0.002938
70587000,0.0324,0.013523,0.002678,0.000431,0.001998
70588000,0.0324,0.013523,0.002678,0.000431,0.003526
70589000,0.0324,0.013523,0.002678,0.000431,0.002468
70590000,0.0324,0.013523,0.002678,0.000431,0.003643
70591000,0.0324,0.013523,0.002678,0.000431,0.003056
70592000,0.0324,0.013523,0.002678,0.000431,0.001998
70593000,0.0324,0.013523,0.002678,0.000431,0.003173
70594000,0.0324,0.013523,0.002678,0.000431,0.002351
70595000,0.0324,0.013523,0.002678,0.000431,0.002586
70596000,0.0324,0.013523,0.002678,0.000431,0.003173
70597000,0.0324,0.013523,0.002678,0.000431,0.001998
70598000,0.0324,0.013523,0.002678,0.000431,0.003056
70599000,0.0324,0.013523,0.002678,0.000431,0.002703
70600000,0.0324,0.013523,0.002678,0.000431,0.002233
70601000,0.0324,0.013523,0.002678,0.000431,0.003643
70602000,0.0324,0.013523,0.002678,0.000431,0.001645
70603000,0.0324,0.013523,0.002678,0.000431,0.003408
70604000,0.0324,0.013523,0.002678,0.000431,0.002116
70605000,0.0324,0.013523,0.002678,0.000431,0.001880
70606000,0.0324,0.013523,0.002678,0.000431,0.002233
70607000,0.0324,0.013523,0.002678,0.000431,0.001058
70608000,0.0324,0.013523,0.002678,0.000431,0.001410
70609000,0.0324,0.013523,0.002678,0.000431,0.001293
70610000,0.0324,0.013523,0.002678,0.000431,0.002938
70611000,0.0324,0.013523,0.002678,0.000431,0.337541
70612000,0.0324,0.013523,0.002678,0.000431,0.858073
70613000,0.0324,0.013523,0.002678,0.000431,0.286769
70614000,0.0324,0.013523,0.002678,0.000431,0.138096
70615000,0.0324,0.013523,0.002678,0.000431,0.579061
70616000,0.0324,0.013523,0.002678,0.000431,0.265496
70617000,0.0324,0.013523,0.002678,0.000431,0.334250
70618000,0.0324,0.013523,0.002678,0.000431,0.157135
70619000,0.0324,0.013523,0.002678,0.000431,0.121407
70620000,0.0324,0.013523,0.002678,0.000431,0.340714
70621000,0.0324,0.013523,0.002678,0.000431,0.472933
70622000,0.0324,0.013523,0.002678,0.000431,0.231060
70623000,0.0324,0.013523,0.002678,0.000431,0.194039
70624000,0.0324,0.013523,0.002678,0.000431,0.170181
70625000,0.0324,0.013523,0.002678,0.000431,0.134217
70626000,0.0324,0.013523,0.002678,0.000431,0.090144
70627000,0.0324,0.013523,0.002678,0.000431,0.071222
70628000,0.0324,0.013523,0.002678,0.000431,0.059352
70629000,0.0324,0.013523,0.002678,0.000431,0.038902
70630000,0.0324,0.013523,0.002678,0.000431,0.033378
70631000,0.0324,0.013523,0.002678,0.000431,0.024798
70632000,0.0324,0.013523,0.002678,0.000431,0.025269
70633000,0.0324,0.013523,0.002678,0.000431,0.017512
70634000,0.0324,0.013523,0.002678,0.000431,0.012105
70635000,0.0324,0.013523,0.002678,0.000431,0.010578
70636000,0.0324,0.013523,0.002678,0.000431,0.014456
70637000,0.0324,0.013523,0.002678,0.000431,0.008345
70638000,0.0324,0.013523,0.002678,0.000431,0.008697
70639000,0.0324,0.013523,0.002678,0.000431,0.007404
70640000,0.0324,0.013523,0.002678,0.000431,0.008345
70641000,0.0324,0.013523,0.002678,0.000431,0.007287
70642000,0.0324,0.013523,0.002678,0.000431,0.008345
70643000,0.0324,0.013523,0.002678,0.000431,0.004701
70644000,0.0324,0.013523,0.002678,0.000431,0.004231
70645000,0.0324,0.013523,0.002678,0.000431,0.004349
70646000,0.0324,0.013523,0.002678,0.000431,0.004819
70647000,0.0324,0.013523,0.002678,0.000431,0.005406
70648000,0.0324,0.013523,0.002678,0.000431,0.004936
70649000,0.0324,0.013523,0.002678,0.000431,0.003526
70650000,0.0324,0.013523,0.002678,0.000431,0.003291
70651000,0.0324,0.013523,0.002678,0.000431,0.003643
70652000,0.0324,0.013523,0.002678,0.000431,0.003761
70653000,0.0324,0.013523,0.002678,0.000431,0.006817
70654000,0.0324,0.013523,0.002678,0.000431,0.003996
70655000,0.0324,0.013523,0.002678,0.000431,0.003643
70656000,0.0324,0.013523,0.002678,0.000431,0.001763
70657000,0.0324,0.013523,0.002678,0.000431,0.004466
70658000,0.0324,0.013523,0.002678,0.000431,0.000940
70659000,0.0324,0.013523,0.002678,0.000431,0.000823
70660000,0.0324,0.013523,0.002678,0.000431,0.001175
70661000,0.0324,0.013523,0.002678,0.000431,0.000823
70662000,0.0324,0.013523,0.002678,0.000431,0.001175
70663000,0.0324,0.013523,0.002678,0.000431,0.000823
70664000,0.0324,0.013523,0.002678,0.000431,0.000940
70665000,0.0324,0.013523,0.002678,0.000431,0.002586
70666000,0.0324,0.013523,0.002678,0.000431,0.578239
70667000,0.0324,0.013523,0.002678,0.000431,0.734904
70668000,0.0324,0.013523,0.002678,0.000431,0.188515
70669000,0.0324,0.013523,0.002678,0.000431,0.147968
70670000,0.0324,0.013523,0.002678,0.000431,0.542510
70671000,0.0324,0.013523,0.002678,0.000431,0.271490
70672000,0.0324,0.013523,0.002678,0.000431,0.340244
70673000,0.0324,0.013523,0.002678,0.000431,0.164657
70674000,0.0324,0.013523,0.002678,0.000431,0.098489
70675000,0.0324,0.013523,0.002678,0.000431,0.428155
70676000,0.0324,0.013523,0.002678,0.000431,0.420398
70677000,0.0324,0.013523,0.002678,0.000431,0.227064
70678000,0.0324,0.013523,0.002678,0.000431,0.184989
70679000,0.0324,0.013523,0.002678,0.000431,0.128341
70680000,0.0324,0.013523,0.002678,0.000431,0.130456
70681000,0.0324,0.013523,0.002678,0.000431,0.084973
70682000,0.0324,0.013523,0.002678,0.000431,0.061232
70683000,0.0324,0.013523,0.002678,0.000431,0.055943
70684000,0.0324,0.013523,0.002678,0.000431,0.036786
70685000,0.0324,0.013523,0.002678,0.000431,0.033613
70686000,0.0324,0.013523,0.002678,0.000431,0.029147
70687000,0.0324,0.013523,0.002678,0.000431,0.019157
70688000,0.0324,0.013523,0.002678,0.000431,0.012105
70689000,0.0324,0.013523,0.002678,0.000431,0.011165
70690000,0.0324,0.013523,0.002678,0.000431,0.008345
70691000,0.0324,0.013523,0.002678,0.000431,0.008462
70692000,0.0324,0.013523,0.002678,0.000431,0.007874
70693000,0.0324,0.013523,0.002678,0.000431,0.002233
70694000,0.0324,0.013523,0.002678,0.000431,0.002938
70695000,0.0324,0.013523,0.002678,0.000431,0.001645
70696000,0.0324,0.013523,0.002678,0.000431,0.001410
70697000,0.0324,0.013523,0.002678,0.000431,0.001528
70698000,0.0324,0.013523,0.002678,0.000431,0.000823
70699000,0.0324,0.013523,0.002678,0.000431,0.000823
70700000,0.0324,0.013523,0.002678,0.000431,0.072045
70701000,0.0324,0.013523,0.002678,0.000431,0.820934
70702000,0.0324,0.013523,0.002678,0.000431,0.535576
70703000,0.0324,0.013523,0.002678,0.000431,0.138683
70704000,0.0324,0.013523,0.002678,0.000431,0.429566
70705000,0.0324,0.013523,0.002678,0.000431,0.307219
70706000,0.0324,0.013523,0.002678,0.000431,0.340127
70707000,0.0324,0.013523,0.002678,0.000431,0.198505
70708000,0.0324,0.013523,0.002678,0.000431,0.142797
70709000,0.0324,0.013523,0.002678,0.000431,0.240580
70710000,0.0324,0.013523,0.002678,0.000431,0.530522
70711000,0.0324,0.013523,0.002678,0.000431,0.201678
70712000,0.0324,0.013523,0.002678,0.000431,0.186987
70713000,0.0324,0.013523,0.002678,0.000431,0.154197
70714000,0.0324,0.013523,0.002678,0.000431,0.137743
70715000,0.0324,0.013523,0.002678,0.000431,0.114120
70716000,0.0324,0.013523,0.002678,0.000431,0.112945
70717000,0.0324,0.013523,0.002678,0.000431,0.088851
70718000,0.0324,0.013523,0.002678,0.000431,0.064053
70719000,0.0324,0.013523,0.002678,0.000431,0.047246
70720000,0.0324,0.013523,0.002678,0.000431,0.029735
70721000,0.0324,0.013523,0.002678,0.000431,0.022565
70722000,0.0324,0.013523,0.002678,0.000431,0.021038
70723000,0.0324,0.013523,0.002678,0.000431,0.013633
70724000,0.0324,0.013523,0.002678,0.000431,0.011048
70725000,0.0324,0.013523,0.002678,0.000431,0.010813
70726000,0.0324,0.013523,0.002678,0.000431,0.007874
70727000,0.0324,0.013523,0.002678,0.000431,0.012223
70728000,0.0324,0.013523,0.002678,0.000431,0.006699
70729000,0.0324,0.013523,0.002678,0.000431,0.004701
70730000,0.0324,0.013523,0.002678,0.000431,0.001528
70731000,0.0324,0.013523,0.002678,0.000431,0.001763
70732000,0.0324,0.013523,0.002678,0.000431,0.001880
70733000,0.0324,0.013523,0.002678,0.000431,0.001410
70734000,0.0324,0.013523,0.002678,0.000431,0.001880
70735000,0.0324,0.013523,0.002678,0.000431,0.001410
70736000,0.0324,0.013523,0.002678,0.000431,0.001880
70737000,0.0324,0.013523,0.002678,0.000431,0.001763
70738000,0.0324,0.013523,0.002678,0.000431,0.001528
70739000,0.0324,0.013523,0.002678,0.000431,0.001880
70740000,0.0324,0.013523,0.002678,0.000431,0.001410
70741000,0.0324,0.013523,0.002678,0.000431,0.004466
70742000,0.0324,0.013523,0.002678,0.000431,0.000940
70743000,0.0324,0.013523,0.002678,0.000431,0.000823
70744000,0.0324,0.013523,0.002678,0.000431,0.000823
70745000,0.0324,0.013523,0.002678,0.000431,0.000705
70746000,0.0324,0.013523,0.002678,0.000431,0.001058
70747000,0.0324,0.013523,0.002678,0.000431,0.004231
70748000,0.0324,0.013523,0.002678,0.000431,0.690478
70749000,0.0324,0.013523,0.002678,0.000431,0.659451
70750000,0.0324,0.013523,0.002678,0.000431,0.139506
70751000,0.0324,0.013523,0.002678,0.000431,0.163834
70752000,0.0324,0.013523,0.002678,0.000431,0.532168
70753000,0.0324,0.013523,0.002678,0.000431,0.233176
70754000,0.0324,0.013523,0.002678,0.000431,0.308276
70755000,0.0324,0.013523,0.002678,0.000431,0.158310
70756000,0.0324,0.013523,0.002678,0.000431,0.121994
70757000,0.0324,0.013523,0.002678,0.000431,0.333898
70758000,0.0324,0.013523,0.002678,0.000431,0.444021
70759000,0.0324,0.013523,0.002678,0.000431,0.192276
70760000,0.0324,0.013523,0.002678,0.000431,0.177468
70761000,0.0324,0.013523,0.002678,0.000431,0.129399
70762000,0.0324,0.013523,0.002678,0.000431,0.115648
70763000,0.0324,0.013523,0.002678,0.000431,0.096608
70764000,0.0324,0.013523,0.002678,0.000431,0.070517
70765000,0.0324,0.013523,0.002678,0.000431,0.063935
70766000,0.0324,0.013523,0.002678,0.000431,0.048774
70767000,0.0324,0.013523,0.002678,0.000431,0.031498
70768000,0.0324,0.013523,0.002678,0.000431,0.031380
70769000,0.0324,0.013523,0.002678,0.000431,0.014691
70770000,0.0324,0.013523,0.002678,0.000431,0.009755
70771000,0.0324,0.013523,0.002678,0.000431,0.014221
70772000,0.0324,0.013523,0.002678,0.000431,0.004231
70773000,0.0324,0.013523,0.002678,0.000431,0.000940
70774000,0.0324,0.013523,0.002678,0.000431,0.000940
70775000,0.0324,0.013523,0.002678,0.000431,0.000940
70776000,0.0324,0.013523,0.002678,0.000431,0.000705
70777000,0.0324,0.013523,0.002678,0.000431,0.000940
70778000,0.0324,0.013523,0.002678,0.000431,0.000940
70779000,0.0324,0.013523,0.002678,0.000431,0.071575
70780000,0.0324,0.013523,0.002678,0.000431,0.768987
70781000,0.0324,0.013523,0.002678,0.000431,0.531345
70782000,0.0324,0.013523,0.002678,0.000431,0.136333
70783000,0.0324,0.013523,0.002678,0.000431,0.209083
70784000,0.0324,0.013523,0.002678,0.000431,0.456715
70785000,0.0324,0.013523,0.002678,0.000431,0.262675
70786000,0.0324,0.013523,0.002678,0.000431,0.271608
70787000,0.0324,0.013523,0.002678,0.000431,0.146323
70788000,0.0324,0.013523,0.002678,0.000431,0.159133
70789000,0.0324,0.013523,0.002678,0.000431,0.236937
70790000,0.0324,0.013523,0.002678,0.000431,0.525939
70791000,0.0324,0.013523,0.002678,0.000431,0.189220
70792000,0.0324,0.013523,0.002678,0.000431,0.178290
70793000,0.0324,0.013523,0.002678,0.000431,0.152904
70794000,0.0324,0.013523,0.002678,0.000431,0.134217
70795000,0.0324,0.013523,0.002678,0.000431,0.121759
70796000,0.0324,0.013523,0.002678,0.000431,0.077216
70797000,0.0324,0.013523,0.002678,0.000431,0.074043
70798000,0.0324,0.013523,0.002678,0.000431,0.050067
70799000,0.0324,0.013523,0.002678,0.000431,0.046541
70800000,0.0324,0.013523,0.002678,0.000431,0.042780
70801000,0.0324,0.013523,0.002678,0.000431,0.029265
70802000,0.0324,0.013523,0.002678,0.000431,0.022213
70803000,0.0324,0.013523,0.002678,0.000431,0.019862
70804000,0.0324,0.013523,0.002678,0.000431,0.026679
70805000,0.0324,0.013523,0.002678,0.000431,0.018217
70806000,0.0324,0.013523,0.002678,0.000431,0.008109
70807000,0.0324,0.013523,0.002678,0.000431,0.003996
70808000,0.0324,0.013523,0.002678,0.000431,0.006229
70809000,0.0324,0.013523,0.002678,0.000431,0.000940
70810000,0.0324,0.013523,0.002678,0.000431,0.000940
70811000,0.0324,0.013523,0.002678,0.000431,0.000705
70812000,0.0324,0.013523,0.002678,0.000431,0.000940
70813000,0.0324,0.013523,0.002678,0.000431,0.000705
70814000,0.0324,0.013523,0.002678,0.000431,0.000940
70815000,0.0324,0.013523,0.002678,0.000431,0.000823
70816000,0.0324,0.013523,0.002678,0.000431,0.000823
70817000,0.0324,0.013523,0.002678,0.000431,0.000823
70818000,0.0324,0.013523,0.002678,0.000431,0.000823
70819000,0.0324,0.013523,0.002678,0.000431,0.000940
70820000,0.0324,0.013523,0.002678,0.000431,0.000705
70821000,0.0324,0.013523,0.002678,0.000431,0.000940
70822000,0.0324,0.013523,0.002678,0.000431,0.000705
70823000,0.0324,0.013523,0.002678,0.000431,0.000705
70824000,0.0324,0.013523,0.002678,0.000431,0.000940
70825000,0.0324,0.013523,0.002678,0.000431,0.000705
70826000,0.0324,0.013523,0.002678,0.000431,0.192629
70827000,0.0324,0.013523,0.002678,0.000431,0.788849
70828000,0.0324,0.013523,0.002678,0.000431,0.452013
70829000,0.0324,0.013523,0.002678,0.000431,0.137273
70830000,0.0324,0.013523,0.002678,0.000431,0.514773
70831000,0.0324,0.013523,0.002678,0.000431,0.240933
70832000,0.0324,0.013523,0.002678,0.000431,0.312860
70833000,0.0324,0.013523,0.002678,0.000431,0.160896
70834000,0.0324,0.013523,0.002678,0.000431,0.186635
70835000,0.0324,0.013523,0.002678,0.000431,0.124580
70836000,0.0324,0.013523,0.002678,0.000431,0.585643
70837000,0.0324,0.013523,0.002678,0.000431,0.244224
70838000,0.0324,0.013523,0.002678,0.000431,0.212608
70839000,0.0324,0.013523,0.002678,0.000431,0.175352
70840000,0.0324,0.013523,0.002678,0.000431,0.143149
70841000,0.0324,0.013523,0.002678,0.000431,0.141034
70842000,0.0324,0.013523,0.002678,0.000431,0.109184
70843000,0.0324,0.013523,0.002678,0.000431,0.086031
70844000,0.0324,0.013523,0.002678,0.000431,0.061115
70845000,0.0324,0.013523,0.002678,0.000431,0.047246
70846000,0.0324,0.013523,0.002678,0.000431,0.038314
70847000,0.0324,0.013523,0.002678,0.000431,0.041605
70848000,0.0324,0.013523,0.002678,0.000431,0.028324
70849000,0.0324,0.013523,0.002678,0.000431,0.028324
70850000,0.0324,0.013523,0.002678,0.000431,0.024446
70851000,0.0324,0.013523,0.002678,0.000431,0.023858
70852000,0.0324,0.013523,0.002678,0.000431,0.016689
70853000,0.0324,0.013523,0.002678,0.000431,0.019275
70854000,0.0324,0.013523,0.002678,0.000431,0.002351
70855000,0.0324,0.013523,0.002678,0.000431,0.071810
70856000,0.0324,0.013523,0.002678,0.000431,0.845145
70857000,0.0324,0.013523,0.002678,0.000431,0.530640
70858000,0.0324,0.013523,0.002678,0.000431,0.137273
70859000,0.0324,0.013523,0.002678,0.000431,0.396305
70860000,0.0324,0.013523,0.002678,0.000431,0.286651
70861000,0.0324,0.013523,0.002678,0.000431,0.293115
70862000,0.0324,0.013523,0.002678,0.000431,0.243283
70863000,0.0324,0.013523,0.002678,0.000431,0.179466
70864000,0.0324,0.013523,0.002678,0.000431,0.104835
70865000,0.0324,0.013523,0.002678,0.000431,0.546271
70866000,0.0324,0.013523,0.002678,0.000431,0.266319
70867000,0.0324,0.013523,0.002678,0.000431,0.203559
70868000,0.0324,0.013523,0.002678,0.000431,0.182404
70869000,0.0324,0.013523,0.002678,0.000431,0.177232
70870000,0.0324,0.013523,0.002678,0.000431,0.138213
70871000,0.0324,0.013523,0.002678,0.000431,0.108949
70872000,0.0324,0.013523,0.002678,0.000431,0.084385
70873000,0.0324,0.013523,0.002678,0.000431,0.072985
70874000,0.0324,0.013523,0.002678,0.000431,0.066168
70875000,0.0324,0.013523,0.002678,0.000431,0.064288
70876000,0.0324,0.013523,0.002678,0.000431,0.041723
70877000,0.0324,0.013523,0.002678,0.000431,0.033848
70878000,0.0324,0.013523,0.002678,0.000431,0.030205
70879000,0.0324,0.013523,0.002678,0.000431,0.028559
70880000,0.0324,0.013523,0.002678,0.000431,0.012105
70881000,0.0324,0.013523,0.002678,0.000431,0.011165
70882000,0.0324,0.013523,0.002678,0.000431,0.007404
70883000,0.0324,0.013523,0.002678,0.000431,0.006699
70884000,0.0324,0.013523,0.002678,0.000431,0.008462
70885000,0.0324,0.013523,0.002678,0.000431,0.006229
70886000,0.0324,0.013523,0.002678,0.000431,0.005406
70887000,0.0324,0.013523,0.002678,0.000431,0.006111
70888000,0.0324,0.013523,0.002678,0.000431,0.006347
70889000,0.0324,0.013523,0.002678,0.000431,0.005524
70890000,0.0324,0.013523,0.002678,0.000431,0.005876
70891000,0.0324,0.013523,0.002678,0.000431,0.005759
70892000,0.0324,0.013523,0.002678,0.000431,0.005406
70893000,0.0324,0.013523,0.002678,0.000431,0.006229
70894000,0.0324,0.013523,0.002678,0.000431,0.008932
70895000,0.0324,0.013523,0.002678,0.000431,0.004349
70896000,0.0324,0.013523,0.002678,0.000431,0.005171
70897000,0.0324,0.013523,0.002678,0.000431,0.004113
70898000,0.0324,0.013523,0.002678,0.000431,0.005171
70899000,0.0324,0.013523,0.002678,0.000431,0.005054
70900000,0.0324,0.013523,0.002678,0.000431,0.004113
70901000,0.0324,0.013523,0.002678,0.000431,0.005171
70902000,0.0324,0.013523,0.002678,0.000431,0.004113
70903000,0.0324,0.013523,0.002678,0.000431,0.005289
70904000,0.0324,0.013523,0.002678,0.000431,0.004231
70905000,0.0324,0.013523,0.002678,0.000431,0.004701
70906000,0.0324,0.013523,0.002678,0.000431,0.004936
70907000,0.0324,0.013523,0.002678,0.000431,0.004466
70908000,0.0324,0.013523,0.002678,0.000431,0.004936
70909000,0.0324,0.013523,0.002678,0.000431,0.004466
70910000,0.0324,0.013523,0.002678,0.000431,0.004701
70911000,0.0324,0.013523,0.002678,0.000431,0.004936
70912000,0.0324,0.013523,0.002678,0.000431,0.005406
70913000,0.0324,0.013523,0.002678,0.000431,0.005524
70914000,0.0324,0.013523,0.002678,0.000431,0.003878
70915000,0.0324,0.013523,0.002678,0.000431,0.003526
70916000,0.0324,0.013523,0.002678,0.000431,0.003996
70917000,0.0324,0.013523,0.002678,0.000431,0.003878
70918000,0.0324,0.013523,0.002678,0.000431,0.003643
70919000,0.0324,0.013523,0.002678,0.000431,0.004231
70920000,0.0324,0.013523,0.002678,0.000431,0.003408
70921000,0.0324,0.013523,0.002678,0.000431,0.004349
70922000,0.0324,0.013523,0.002678,0.000431,0.003526
70923000,0.0324,0.013523,0.002678,0.000431,0.003761
70924000,0.0324,0.013523,0.002678,0.000431,0.004349
70925000,0.0324,0.013523,0.002678,0.000431,0.003878
70926000,0.0324,0.013523,0.002678,0.000431,0.003878
70927000,0.0324,0.013523,0.002678,0.000431,0.003761
70928000,0.0324,0.013523,0.002678,0.000431,0.004349
70929000,0.0324,0.013523,0.002678,0.000431,0.003761
70930000,0.0324,0.013523,0.002678,0.000431,0.003643
70931000,0.0324,0.013523,0.002678,0.000431,0.005289
70932000,0.0324,0.013523,0.002678,0.000431,0.002703
70933000,0.0324,0.013523,0.002678,0.000431,0.005054
70934000,0.0324,0.013523,0.002678,0.000431,0.001763
70935000,0.0324,0.013523,0.002678,0.000431,0.001645
70936000,0.0324,0.013523,0.002678,0.000431,0.001763
70937000,0.0324,0.013523,0.002678,0.000431,0.004231
70938000,0.0324,0.013523,0.002678,0.000431,0.002351
70939000,0.0324,0.013523,0.002678,0.000431,0.581647
70940000,0.0324,0.013523,0.002678,0.000431,0.753943
70941000,0.0324,0.013523,0.002678,0.000431,0.144912
70942000,0.0324,0.013523,0.002678,0.000431,0.149966
70943000,0.0324,0.013523,0.002678,0.000431,0.553558
70944000,0.0324,0.013523,0.002678,0.000431,0.256682
70945000,0.0324,0.013523,0.002678,0.000431,0.299227
70946000,0.0324,0.013523,0.002678,0.000431,0.150436
70947000,0.0324,0.013523,0.002678,0.000431,0.117763
70948000,0.0324,0.013523,0.002678,0.000431,0.376443
70949000,0.0324,0.013523,0.002678,0.000431,0.443316
70950000,0.0324,0.013523,0.002678,0.000431,0.203324
70951000,0.0324,0.013523,0.002678,0.000431,0.185812
70952000,0.0324,0.013523,0.002678,0.000431,0.155490
70953000,0.0324,0.013523,0.002678,0.000431,0.140094
70954000,0.0324,0.013523,0.002678,0.000431,0.094963
70955000,0.0324,0.013523,0.002678,0.000431,0.087794
70956000,0.0324,0.013523,0.002678,0.000431,0.056531
70957000,0.0324,0.013523,0.002678,0.000431,0.030792
70958000,0.0324,0.013523,0.002678,0.000431,0.030792
70959000,0.0324,0.013523,0.002678,0.000431,0.021743
70960000,0.0324,0.013523,0.002678,0.000431,0.017864
70961000,0.0324,0.013523,0.002678,0.000431,0.017394
70962000,0.0324,0.013523,0.002678,0.000431,0.016689
70963000,0.0324,0.013523,0.002678,0.000431,0.006934
70964000,0.0324,0.013523,0.002678,0.000431,0.005876
70965000,0.0324,0.013523,0.002678,0.000431,0.005289
70966000,0.0324,0.013523,0.002678,0.000431,0.001998
70967000,0.0324,0.013523,0.002678,0.000431,0.002703
70968000,0.0324,0.013523,0.002678,0.000431,0.002116
70969000,0.0324,0.013523,0.002678,0.000431,0.002586
70970000,0.0324,0.013523,0.002678,0.000431,0.002468
70971000,0.0324,0.013523,0.002678,0.000431,0.002116
70972000,0.0324,0.013523,0.002678,0.000431,0.002821
70973000,0.0324,0.013523,0.002678,0.000431,0.001998
70974000,0.0324,0.013523,0.002678,0.000431,0.002703
70975000,0.0324,0.013523,0.002678,0.000431,0.002586
70976000,0.0324,0.013523,0.002678,0.000431,0.002116
70977000,0.0324,0.013523,0.002678,0.000431,0.002586
70978000,0.0324,0.013523,0.002678,0.000431,0.002233
70979000,0.0324,0.013523,0.002678,0.000431,0.002233
70980000,0.0324,0.013523,0.002678,0.000431,0.002586
70981000,0.0324,0.013523,0.002678,0.000431,0.002351
70982000,0.0324,0.013523,0.002678,0.000431,0.005054
70983000,0.0324,0.013523,0.002678,0.000431,0.001645
70984000,0.0324,0.013523,0.002678,0.000431,0.001410
70985000,0.0324,0.013523,0.002678,0.000431,0.001880
70986000,0.0324,0.013523,0.002678,0.000431,0.001175
70987000,0.0324,0.013523,0.002678,0.000431,0.001880
70988000,0.0324,0.013523,0.002678,0.000431,0.001528
70989000,0.0324,0.013523,0.002678,0.000431,0.001528
70990000,0.0324,0.013523,0.002678,0.000431,0.001880
70991000,0.0324,0.013523,0.002678,0.000431,0.001175
70992000,0.0324,0.013523,0.002678,0.000431,0.001528
70993000,0.0324,0.013523,0.002678,0.000431,0.001293
70994000,0.0324,0.013523,0.002678,0.000431,0.001410
70995000,0.0324,0.013523,0.002678,0.000431,0.001645
70996000,0.0324,0.013523,0.002678,0.000431,0.001410
70997000,0.0324,0.013523,0.002678,0.000431,0.000823
70998000,0.0324,0.013523,0.002678,0.000431,0.000940
70999000,0.0324,0.013523,0.002678,0.000431,0.004936
