Cycle,Area(mm^2),PeakDynamic(W),SubthresholdLeakage(W),GateLeakage(W),RunTimeDynamic(W)
18000000,0.0324,0.013523,0.002678,0.000431,0.004584
18001000,0.0324,0.013523,0.002678,0.000431,0.004819
18002000,0.0324,0.013523,0.002678,0.000431,0.004349
18003000,0.0324,0.013523,0.002678,0.000431,0.003996
18004000,0.0324,0.013523,0.002678,0.000431,0.004584
18005000,0.0324,0.013523,0.002678,0.000431,0.005171
18006000,0.0324,0.013523,0.002678,0.000431,0.004819
18007000,0.0324,0.013523,0.002678,0.000431,0.004466
18008000,0.0324,0.013523,0.002678,0.000431,0.005289
18009000,0.0324,0.013523,0.002678,0.000431,0.004231
18010000,0.0324,0.013523,0.002678,0.000431,0.004231
18011000,0.0324,0.013523,0.002678,0.000431,0.004701
18012000,0.0324,0.013523,0.002678,0.000431,0.004819
18013000,0.0324,0.013523,0.002678,0.000431,0.004231
18014000,0.0324,0.013523,0.002678,0.000431,0.004936
18015000,0.0324,0.013523,0.002678,0.000431,0.004349
18016000,0.0324,0.013523,0.002678,0.000431,0.004701
18017000,0.0324,0.013523,0.002678,0.000431,0.004701
18018000,0.0324,0.013523,0.002678,0.000431,0.004701
18019000,0.0324,0.013523,0.002678,0.000431,0.004819
18020000,0.0324,0.013523,0.002678,0.000431,0.004349
18021000,0.0324,0.013523,0.002678,0.000431,0.003996
18022000,0.0324,0.013523,0.002678,0.000431,0.004819
18023000,0.0324,0.013523,0.002678,0.000431,0.004113
18024000,0.0324,0.013523,0.002678,0.000431,0.004466
18025000,0.0324,0.013523,0.002678,0.000431,0.004231
18026000,0.0324,0.013523,0.002678,0.000431,0.004231
18027000,0.0324,0.013523,0.002678,0.000431,0.004584
18028000,0.0324,0.013523,0.002678,0.000431,0.004701
18029000,0.0324,0.013523,0.002678,0.000431,0.005054
18030000,0.0324,0.013523,0.002678,0.000431,0.004349
18031000,0.0324,0.013523,0.002678,0.000431,0.004466
18032000,0.0324,0.013523,0.002678,0.000431,0.004231
18033000,0.0324,0.013523,0.002678,0.000431,0.004584
18034000,0.0324,0.013523,0.002678,0.000431,0.004701
18035000,0.0324,0.013523,0.002678,0.000431,0.004231
18036000,0.0324,0.013523,0.002678,0.000431,0.004936
18037000,0.0324,0.013523,0.002678,0.000431,0.004936
18038000,0.0324,0.013523,0.002678,0.000431,0.004231
18039000,0.0324,0.013523,0.002678,0.000431,0.004584
18040000,0.0324,0.013523,0.002678,0.000431,0.004584
18041000,0.0324,0.013523,0.002678,0.000431,0.004584
18042000,0.0324,0.013523,0.002678,0.000431,0.004701
18043000,0.0324,0.013523,0.002678,0.000431,0.005054
18044000,0.0324,0.013523,0.002678,0.000431,0.004231
18045000,0.0324,0.013523,0.002678,0.000431,0.004819
18046000,0.0324,0.013523,0.002678,0.000431,0.004231
18047000,0.0324,0.013523,0.002678,0.000431,0.004584
18048000,0.0324,0.013523,0.002678,0.000431,0.004701
18049000,0.0324,0.013523,0.002678,0.000431,0.004701
18050000,0.0324,0.013523,0.002678,0.000431,0.004584
18051000,0.0324,0.013523,0.002678,0.000431,0.004349
18052000,0.0324,0.013523,0.002678,0.000431,0.005289
18053000,0.0324,0.013523,0.002678,0.000431,0.004231
18054000,0.0324,0.013523,0.002678,0.000431,0.004584
18055000,0.0324,0.013523,0.002678,0.000431,0.004113
18056000,0.0324,0.013523,0.002678,0.000431,0.005054
18057000,0.0324,0.013523,0.002678,0.000431,0.004819
18058000,0.0324,0.013523,0.002678,0.000431,0.004936
18059000,0.0324,0.013523,0.002678,0.000431,0.004466
18060000,0.0324,0.013523,0.002678,0.000431,0.004701
18061000,0.0324,0.013523,0.002678,0.000431,0.004701
18062000,0.0324,0.013523,0.002678,0.000431,0.004701
18063000,0.0324,0.013523,0.002678,0.000431,0.005289
18064000,0.0324,0.013523,0.002678,0.000431,0.003878
18065000,0.0324,0.013523,0.002678,0.000431,0.004584
18066000,0.0324,0.013523,0.002678,0.000431,0.004701
18067000,0.0324,0.013523,0.002678,0.000431,0.004701
18068000,0.0324,0.013523,0.002678,0.000431,0.003878
18069000,0.0324,0.013523,0.002678,0.000431,0.004936
18070000,0.0324,0.013523,0.002678,0.000431,0.004701
18071000,0.0324,0.013523,0.002678,0.000431,0.004466
18072000,0.0324,0.013523,0.002678,0.000431,0.004819
18073000,0.0324,0.013523,0.002678,0.000431,0.004231
18074000,0.0324,0.013523,0.002678,0.000431,0.004113
18075000,0.0324,0.013523,0.002678,0.000431,0.004349
18076000,0.0324,0.013523,0.002678,0.000431,0.004349
18077000,0.0324,0.013523,0.002678,0.000431,0.004349
18078000,0.0324,0.013523,0.002678,0.000431,0.004819
18079000,0.0324,0.013523,0.002678,0.000431,0.003878
18080000,0.0324,0.013523,0.002678,0.000431,0.004701
18081000,0.0324,0.013523,0.002678,0.000431,0.003996
18082000,0.0324,0.013523,0.002678,0.000431,0.005406
18083000,0.0324,0.013523,0.002678,0.000431,0.004936
18084000,0.0324,0.013523,0.002678,0.000431,0.003878
18085000,0.0324,0.013523,0.002678,0.000431,0.004819
18086000,0.0324,0.013523,0.002678,0.000431,0.004466
18087000,0.0324,0.013523,0.002678,0.000431,0.004113
18088000,0.0324,0.013523,0.002678,0.000431,0.004819
18089000,0.0324,0.013523,0.002678,0.000431,0.004466
18090000,0.0324,0.013523,0.002678,0.000431,0.003878
18091000,0.0324,0.013523,0.002678,0.000431,0.005289
18092000,0.0324,0.013523,0.002678,0.000431,0.005054
18093000,0.0324,0.013523,0.002678,0.000431,0.004231
18094000,0.0324,0.013523,0.002678,0.000431,0.004819
18095000,0.0324,0.013523,0.002678,0.000431,0.004349
18096000,0.0324,0.013523,0.002678,0.000431,0.004701
18097000,0.0324,0.013523,0.002678,0.000431,0.004349
18098000,0.0324,0.013523,0.002678,0.000431,0.004819
18099000,0.0324,0.013523,0.002678,0.000431,0.005054
18100000,0.0324,0.013523,0.002678,0.000431,0.004936
18101000,0.0324,0.013523,0.002678,0.000431,0.004349
18102000,0.0324,0.013523,0.002678,0.000431,0.004466
18103000,0.0324,0.013523,0.002678,0.000431,0.004584
18104000,0.0324,0.013523,0.002678,0.000431,0.004584
18105000,0.0324,0.013523,0.002678,0.000431,0.004349
18106000,0.0324,0.013523,0.002678,0.000431,0.004231
18107000,0.0324,0.013523,0.002678,0.000431,0.004701
18108000,0.0324,0.013523,0.002678,0.000431,0.004584
18109000,0.0324,0.013523,0.002678,0.000431,0.004936
18110000,0.0324,0.013523,0.002678,0.000431,0.004584
18111000,0.0324,0.013523,0.002678,0.000431,0.004584
18112000,0.0324,0.013523,0.002678,0.000431,0.004819
18113000,0.0324,0.013523,0.002678,0.000431,0.004231
18114000,0.0324,0.013523,0.002678,0.000431,0.004819
18115000,0.0324,0.013523,0.002678,0.000431,0.004466
18116000,0.0324,0.013523,0.002678,0.000431,0.004701
18117000,0.0324,0.013523,0.002678,0.000431,0.004231
18118000,0.0324,0.013523,0.002678,0.000431,0.004701
18119000,0.0324,0.013523,0.002678,0.000431,0.004349
18120000,0.0324,0.013523,0.002678,0.000431,0.004819
18121000,0.0324,0.013523,0.002678,0.000431,0.004584
18122000,0.0324,0.013523,0.002678,0.000431,0.004231
18123000,0.0324,0.013523,0.002678,0.000431,0.004584
18124000,0.0324,0.013523,0.002678,0.000431,0.004584
18125000,0.0324,0.013523,0.002678,0.000431,0.004701
18126000,0.0324,0.013523,0.002678,0.000431,0.004584
18127000,0.0324,0.013523,0.002678,0.000431,0.004584
18128000,0.0324,0.013523,0.002678,0.000431,0.005054
18129000,0.0324,0.013523,0.002678,0.000431,0.004819
18130000,0.0324,0.013523,0.002678,0.000431,0.004584
18131000,0.0324,0.013523,0.002678,0.000431,0.004349
18132000,0.0324,0.013523,0.002678,0.000431,0.004584
18133000,0.0324,0.013523,0.002678,0.000431,0.004701
18134000,0.0324,0.013523,0.002678,0.000431,0.004701
18135000,0.0324,0.013523,0.002678,0.000431,0.004113
18136000,0.0324,0.013523,0.002678,0.000431,0.003996
18137000,0.0324,0.013523,0.002678,0.000431,0.004466
18138000,0.0324,0.013523,0.002678,0.000431,0.004466
18139000,0.0324,0.013523,0.002678,0.000431,0.004819
18140000,0.0324,0.013523,0.002678,0.000431,0.004349
18141000,0.0324,0.013523,0.002678,0.000431,0.004349
18142000,0.0324,0.013523,0.002678,0.000431,0.004819
18143000,0.0324,0.013523,0.002678,0.000431,0.004466
18144000,0.0324,0.013523,0.002678,0.000431,0.004701
18145000,0.0324,0.013523,0.002678,0.000431,0.005171
18146000,0.0324,0.013523,0.002678,0.000431,0.005289
18147000,0.0324,0.013523,0.002678,0.000431,0.004466
18148000,0.0324,0.013523,0.002678,0.000431,0.004584
18149000,0.0324,0.013523,0.002678,0.000431,0.004584
18150000,0.0324,0.013523,0.002678,0.000431,0.004701
18151000,0.0324,0.013523,0.002678,0.000431,0.004349
18152000,0.0324,0.013523,0.002678,0.000431,0.004936
18153000,0.0324,0.013523,0.002678,0.000431,0.004819
18154000,0.0324,0.013523,0.002678,0.000431,0.003996
18155000,0.0324,0.013523,0.002678,0.000431,0.004819
18156000,0.0324,0.013523,0.002678,0.000431,0.004701
18157000,0.0324,0.013523,0.002678,0.000431,0.004231
18158000,0.0324,0.013523,0.002678,0.000431,0.004113
18159000,0.0324,0.013523,0.002678,0.000431,0.004113
18160000,0.0324,0.013523,0.002678,0.000431,0.004936
18161000,0.0324,0.013523,0.002678,0.000431,0.004584
18162000,0.0324,0.013523,0.002678,0.000431,0.004231
18163000,0.0324,0.013523,0.002678,0.000431,0.003878
18164000,0.0324,0.013523,0.002678,0.000431,0.004584
18165000,0.0324,0.013523,0.002678,0.000431,0.004231
18166000,0.0324,0.013523,0.002678,0.000431,0.004936
18167000,0.0324,0.013523,0.002678,0.000431,0.004113
18168000,0.0324,0.013523,0.002678,0.000431,0.003996
18169000,0.0324,0.013523,0.002678,0.000431,0.004584
18170000,0.0324,0.013523,0.002678,0.000431,0.004819
18171000,0.0324,0.013523,0.002678,0.000431,0.004936
18172000,0.0324,0.013523,0.002678,0.000431,0.004584
18173000,0.0324,0.013523,0.002678,0.000431,0.004819
18174000,0.0324,0.013523,0.002678,0.000431,0.004819
18175000,0.0324,0.013523,0.002678,0.000431,0.004349
18176000,0.0324,0.013523,0.002678,0.000431,0.004819
18177000,0.0324,0.013523,0.002678,0.000431,0.004231
18178000,0.0324,0.013523,0.002678,0.000431,0.004466
18179000,0.0324,0.013523,0.002678,0.000431,0.004584
18180000,0.0324,0.013523,0.002678,0.000431,0.004584
18181000,0.0324,0.013523,0.002678,0.000431,0.005171
18182000,0.0324,0.013523,0.002678,0.000431,0.004466
18183000,0.0324,0.013523,0.002678,0.000431,0.004349
18184000,0.0324,0.013523,0.002678,0.000431,0.004584
18185000,0.0324,0.013523,0.002678,0.000431,0.004113
18186000,0.0324,0.013523,0.002678,0.000431,0.004819
18187000,0.0324,0.013523,0.002678,0.000431,0.004231
18188000,0.0324,0.013523,0.002678,0.000431,0.004819
18189000,0.0324,0.013523,0.002678,0.000431,0.005054
18190000,0.0324,0.013523,0.002678,0.000431,0.004466
18191000,0.0324,0.013523,0.002678,0.000431,0.005054
18192000,0.0324,0.013523,0.002678,0.000431,0.003761
18193000,0.0324,0.013523,0.002678,0.000431,0.004466
18194000,0.0324,0.013523,0.002678,0.000431,0.004584
18195000,0.0324,0.013523,0.002678,0.000431,0.004349
18196000,0.0324,0.013523,0.002678,0.000431,0.004349
18197000,0.0324,0.013523,0.002678,0.000431,0.004231
18198000,0.0324,0.013523,0.002678,0.000431,0.004819
18199000,0.0324,0.013523,0.002678,0.000431,0.004819
18200000,0.0324,0.013523,0.002678,0.000431,0.004936
18201000,0.0324,0.013523,0.002678,0.000431,0.004701
18202000,0.0324,0.013523,0.002678,0.000431,0.004349
18203000,0.0324,0.013523,0.002678,0.000431,0.004349
18204000,0.0324,0.013523,0.002678,0.000431,0.004231
18205000,0.0324,0.013523,0.002678,0.000431,0.004466
18206000,0.0324,0.013523,0.002678,0.000431,0.004349
18207000,0.0324,0.013523,0.002678,0.000431,0.004819
18208000,0.0324,0.013523,0.002678,0.000431,0.004819
18209000,0.0324,0.013523,0.002678,0.000431,0.004819
18210000,0.0324,0.013523,0.002678,0.000431,0.004466
18211000,0.0324,0.013523,0.002678,0.000431,0.005054
18212000,0.0324,0.013523,0.002678,0.000431,0.004466
18213000,0.0324,0.013523,0.002678,0.000431,0.004584
18214000,0.0324,0.013523,0.002678,0.000431,0.004701
18215000,0.0324,0.013523,0.002678,0.000431,0.004113
18216000,0.0324,0.013523,0.002678,0.000431,0.004584
18217000,0.0324,0.013523,0.002678,0.000431,0.004936
18218000,0.0324,0.013523,0.002678,0.000431,0.004584
18219000,0.0324,0.013523,0.002678,0.000431,0.004113
18220000,0.0324,0.013523,0.002678,0.000431,0.004349
18221000,0.0324,0.013523,0.002678,0.000431,0.004231
18222000,0.0324,0.013523,0.002678,0.000431,0.004466
18223000,0.0324,0.013523,0.002678,0.000431,0.004349
18224000,0.0324,0.013523,0.002678,0.000431,0.004701
18225000,0.0324,0.013523,0.002678,0.000431,0.004466
18226000,0.0324,0.013523,0.002678,0.000431,0.004584
18227000,0.0324,0.013523,0.002678,0.000431,0.004584
18228000,0.0324,0.013523,0.002678,0.000431,0.004349
18229000,0.0324,0.013523,0.002678,0.000431,0.004584
18230000,0.0324,0.013523,0.002678,0.000431,0.004349
18231000,0.0324,0.013523,0.002678,0.000431,0.003996
18232000,0.0324,0.013523,0.002678,0.000431,0.004701
18233000,0.0324,0.013523,0.002678,0.000431,0.003643
18234000,0.0324,0.013523,0.002678,0.000431,0.004701
18235000,0.0324,0.013523,0.002678,0.000431,0.005054
18236000,0.0324,0.013523,0.002678,0.000431,0.004701
18237000,0.0324,0.013523,0.002678,0.000431,0.004701
18238000,0.0324,0.013523,0.002678,0.000431,0.004466
18239000,0.0324,0.013523,0.002678,0.000431,0.004584
18240000,0.0324,0.013523,0.002678,0.000431,0.004819
18241000,0.0324,0.013523,0.002678,0.000431,0.004113
18242000,0.0324,0.013523,0.002678,0.000431,0.004349
18243000,0.0324,0.013523,0.002678,0.000431,0.004466
18244000,0.0324,0.013523,0.002678,0.000431,0.005641
18245000,0.0324,0.013523,0.002678,0.000431,0.004819
18246000,0.0324,0.013523,0.002678,0.000431,0.004113
18247000,0.0324,0.013523,0.002678,0.000431,0.004701
18248000,0.0324,0.013523,0.002678,0.000431,0.004231
18249000,0.0324,0.013523,0.002678,0.000431,0.004936
18250000,0.0324,0.013523,0.002678,0.000431,0.003996
18251000,0.0324,0.013523,0.002678,0.000431,0.004466
18252000,0.0324,0.013523,0.002678,0.000431,0.004819
18253000,0.0324,0.013523,0.002678,0.000431,0.004936
18254000,0.0324,0.013523,0.002678,0.000431,0.004936
18255000,0.0324,0.013523,0.002678,0.000431,0.004466
18256000,0.0324,0.013523,0.002678,0.000431,0.004701
18257000,0.0324,0.013523,0.002678,0.000431,0.004113
18258000,0.0324,0.013523,0.002678,0.000431,0.004466
18259000,0.0324,0.013523,0.002678,0.000431,0.004584
18260000,0.0324,0.013523,0.002678,0.000431,0.004819
18261000,0.0324,0.013523,0.002678,0.000431,0.004584
18262000,0.0324,0.013523,0.002678,0.000431,0.004231
18263000,0.0324,0.013523,0.002678,0.000431,0.004584
18264000,0.0324,0.013523,0.002678,0.000431,0.004231
18265000,0.0324,0.013523,0.002678,0.000431,0.004584
18266000,0.0324,0.013523,0.002678,0.000431,0.004819
18267000,0.0324,0.013523,0.002678,0.000431,0.004231
18268000,0.0324,0.013523,0.002678,0.000431,0.004936
18269000,0.0324,0.013523,0.002678,0.000431,0.004584
18270000,0.0324,0.013523,0.002678,0.000431,0.004701
18271000,0.0324,0.013523,0.002678,0.000431,0.004701
18272000,0.0324,0.013523,0.002678,0.000431,0.004819
18273000,0.0324,0.013523,0.002678,0.000431,0.004584
18274000,0.0324,0.013523,0.002678,0.000431,0.003996
18275000,0.0324,0.013523,0.002678,0.000431,0.004466
18276000,0.0324,0.013523,0.002678,0.000431,0.004701
18277000,0.0324,0.013523,0.002678,0.000431,0.004231
18278000,0.0324,0.013523,0.002678,0.000431,0.004819
18279000,0.0324,0.013523,0.002678,0.000431,0.004584
18280000,0.0324,0.013523,0.002678,0.000431,0.004349
18281000,0.0324,0.013523,0.002678,0.000431,0.004584
18282000,0.0324,0.013523,0.002678,0.000431,0.004936
18283000,0.0324,0.013523,0.002678,0.000431,0.004936
18284000,0.0324,0.013523,0.002678,0.000431,0.004466
18285000,0.0324,0.013523,0.002678,0.000431,0.004349
18286000,0.0324,0.013523,0.002678,0.000431,0.004584
18287000,0.0324,0.013523,0.002678,0.000431,0.004466
18288000,0.0324,0.013523,0.002678,0.000431,0.004819
18289000,0.0324,0.013523,0.002678,0.000431,0.004466
18290000,0.0324,0.013523,0.002678,0.000431,0.004936
18291000,0.0324,0.013523,0.002678,0.000431,0.004584
18292000,0.0324,0.013523,0.002678,0.000431,0.004584
18293000,0.0324,0.013523,0.002678,0.000431,0.004819
18294000,0.0324,0.013523,0.002678,0.000431,0.004466
18295000,0.0324,0.013523,0.002678,0.000431,0.004466
18296000,0.0324,0.013523,0.002678,0.000431,0.004231
18297000,0.0324,0.013523,0.002678,0.000431,0.004701
18298000,0.0324,0.013523,0.002678,0.000431,0.004819
18299000,0.0324,0.013523,0.002678,0.000431,0.004936
18300000,0.0324,0.013523,0.002678,0.000431,0.003643
18301000,0.0324,0.013523,0.002678,0.000431,0.004349
18302000,0.0324,0.013523,0.002678,0.000431,0.004819
18303000,0.0324,0.013523,0.002678,0.000431,0.004819
18304000,0.0324,0.013523,0.002678,0.000431,0.004113
18305000,0.0324,0.013523,0.002678,0.000431,0.004701
18306000,0.0324,0.013523,0.002678,0.000431,0.005171
18307000,0.0324,0.013523,0.002678,0.000431,0.004936
18308000,0.0324,0.013523,0.002678,0.000431,0.004466
18309000,0.0324,0.013523,0.002678,0.000431,0.004231
18310000,0.0324,0.013523,0.002678,0.000431,0.004819
18311000,0.0324,0.013523,0.002678,0.000431,0.004466
18312000,0.0324,0.013523,0.002678,0.000431,0.004584
18313000,0.0324,0.013523,0.002678,0.000431,0.004349
18314000,0.0324,0.013523,0.002678,0.000431,0.004466
18315000,0.0324,0.013523,0.002678,0.000431,0.005054
18316000,0.0324,0.013523,0.002678,0.000431,0.004349
18317000,0.0324,0.013523,0.002678,0.000431,0.003996
18318000,0.0324,0.013523,0.002678,0.000431,0.004466
18319000,0.0324,0.013523,0.002678,0.000431,0.004701
18320000,0.0324,0.013523,0.002678,0.000431,0.004466
18321000,0.0324,0.013523,0.002678,0.000431,0.004584
18322000,0.0324,0.013523,0.002678,0.000431,0.004466
18323000,0.0324,0.013523,0.002678,0.000431,0.005054
18324000,0.0324,0.013523,0.002678,0.000431,0.003996
18325000,0.0324,0.013523,0.002678,0.000431,0.004113
18326000,0.0324,0.013523,0.002678,0.000431,0.004701
18327000,0.0324,0.013523,0.002678,0.000431,0.004936
18328000,0.0324,0.013523,0.002678,0.000431,0.004701
18329000,0.0324,0.013523,0.002678,0.000431,0.004113
18330000,0.0324,0.013523,0.002678,0.000431,0.004584
18331000,0.0324,0.013523,0.002678,0.000431,0.004584
18332000,0.0324,0.013523,0.002678,0.000431,0.004349
18333000,0.0324,0.013523,0.002678,0.000431,0.004466
18334000,0.0324,0.013523,0.002678,0.000431,0.004231
18335000,0.0324,0.013523,0.002678,0.000431,0.004936
18336000,0.0324,0.013523,0.002678,0.000431,0.004701
18337000,0.0324,0.013523,0.002678,0.000431,0.004584
18338000,0.0324,0.013523,0.002678,0.000431,0.004936
18339000,0.0324,0.013523,0.002678,0.000431,0.004584
18340000,0.0324,0.013523,0.002678,0.000431,0.004584
18341000,0.0324,0.013523,0.002678,0.000431,0.004936
18342000,0.0324,0.013523,0.002678,0.000431,0.004466
18343000,0.0324,0.013523,0.002678,0.000431,0.004819
18344000,0.0324,0.013523,0.002678,0.000431,0.004113
18345000,0.0324,0.013523,0.002678,0.000431,0.004349
18346000,0.0324,0.013523,0.002678,0.000431,0.004819
18347000,0.0324,0.013523,0.002678,0.000431,0.004466
18348000,0.0324,0.013523,0.002678,0.000431,0.004819
18349000,0.0324,0.013523,0.002678,0.000431,0.004349
18350000,0.0324,0.013523,0.002678,0.000431,0.004584
18351000,0.0324,0.013523,0.002678,0.000431,0.004466
18352000,0.0324,0.013523,0.002678,0.000431,0.004584
18353000,0.0324,0.013523,0.002678,0.000431,0.004584
18354000,0.0324,0.013523,0.002678,0.000431,0.003996
18355000,0.0324,0.013523,0.002678,0.000431,0.004584
18356000,0.0324,0.013523,0.002678,0.000431,0.004701
18357000,0.0324,0.013523,0.002678,0.000431,0.004701
18358000,0.0324,0.013523,0.002678,0.000431,0.004701
18359000,0.0324,0.013523,0.002678,0.000431,0.004113
18360000,0.0324,0.013523,0.002678,0.000431,0.004701
18361000,0.0324,0.013523,0.002678,0.000431,0.003878
18362000,0.0324,0.013523,0.002678,0.000431,0.004231
18363000,0.0324,0.013523,0.002678,0.000431,0.005289
18364000,0.0324,0.013523,0.002678,0.000431,0.004584
18365000,0.0324,0.013523,0.002678,0.000431,0.003878
18366000,0.0324,0.013523,0.002678,0.000431,0.004466
18367000,0.0324,0.013523,0.002678,0.000431,0.004466
18368000,0.0324,0.013523,0.002678,0.000431,0.003878
18369000,0.0324,0.013523,0.002678,0.000431,0.004349
18370000,0.0324,0.013523,0.002678,0.000431,0.003878
18371000,0.0324,0.013523,0.002678,0.000431,0.004584
18372000,0.0324,0.013523,0.002678,0.000431,0.004349
18373000,0.0324,0.013523,0.002678,0.000431,0.004584
18374000,0.0324,0.013523,0.002678,0.000431,0.004349
18375000,0.0324,0.013523,0.002678,0.000431,0.004113
18376000,0.0324,0.013523,0.002678,0.000431,0.004701
18377000,0.0324,0.013523,0.002678,0.000431,0.004584
18378000,0.0324,0.013523,0.002678,0.000431,0.004113
18379000,0.0324,0.013523,0.002678,0.000431,0.004466
18380000,0.0324,0.013523,0.002678,0.000431,0.004349
18381000,0.0324,0.013523,0.002678,0.000431,0.004466
18382000,0.0324,0.013523,0.002678,0.000431,0.003996
18383000,0.0324,0.013523,0.002678,0.000431,0.004584
18384000,0.0324,0.013523,0.002678,0.000431,0.004231
18385000,0.0324,0.013523,0.002678,0.000431,0.004349
18386000,0.0324,0.013523,0.002678,0.000431,0.004701
18387000,0.0324,0.013523,0.002678,0.000431,0.004701
18388000,0.0324,0.013523,0.002678,0.000431,0.004349
18389000,0.0324,0.013523,0.002678,0.000431,0.003996
18390000,0.0324,0.013523,0.002678,0.000431,0.004113
18391000,0.0324,0.013523,0.002678,0.000431,0.004466
18392000,0.0324,0.013523,0.002678,0.000431,0.004113
18393000,0.0324,0.013523,0.002678,0.000431,0.004466
18394000,0.0324,0.013523,0.002678,0.000431,0.005054
18395000,0.0324,0.013523,0.002678,0.000431,0.004701
18396000,0.0324,0.013523,0.002678,0.000431,0.004349
18397000,0.0324,0.013523,0.002678,0.000431,0.003996
18398000,0.0324,0.013523,0.002678,0.000431,0.004936
18399000,0.0324,0.013523,0.002678,0.000431,0.004701
18400000,0.0324,0.013523,0.002678,0.000431,0.003996
18401000,0.0324,0.013523,0.002678,0.000431,0.004701
18402000,0.0324,0.013523,0.002678,0.000431,0.004231
18403000,0.0324,0.013523,0.002678,0.000431,0.004584
18404000,0.0324,0.013523,0.002678,0.000431,0.003761
18405000,0.0324,0.013523,0.002678,0.000431,0.004231
18406000,0.0324,0.013523,0.002678,0.000431,0.003878
18407000,0.0324,0.013523,0.002678,0.000431,0.003996
18408000,0.0324,0.013523,0.002678,0.000431,0.004701
18409000,0.0324,0.013523,0.002678,0.000431,0.004701
18410000,0.0324,0.013523,0.002678,0.000431,0.004231
18411000,0.0324,0.013523,0.002678,0.000431,0.005054
18412000,0.0324,0.013523,0.002678,0.000431,0.004349
18413000,0.0324,0.013523,0.002678,0.000431,0.004113
18414000,0.0324,0.013523,0.002678,0.000431,0.004819
18415000,0.0324,0.013523,0.002678,0.000431,0.004231
18416000,0.0324,0.013523,0.002678,0.000431,0.004231
18417000,0.0324,0.013523,0.002678,0.000431,0.003996
18418000,0.0324,0.013523,0.002678,0.000431,0.004584
18419000,0.0324,0.013523,0.002678,0.000431,0.004584
18420000,0.0324,0.013523,0.002678,0.000431,0.004584
18421000,0.0324,0.013523,0.002678,0.000431,0.004231
18422000,0.0324,0.013523,0.002678,0.000431,0.004819
18423000,0.0324,0.013523,0.002678,0.000431,0.004466
18424000,0.0324,0.013523,0.002678,0.000431,0.004231
18425000,0.0324,0.013523,0.002678,0.000431,0.004349
18426000,0.0324,0.013523,0.002678,0.000431,0.005054
18427000,0.0324,0.013523,0.002678,0.000431,0.003761
18428000,0.0324,0.013523,0.002678,0.000431,0.004466
18429000,0.0324,0.013523,0.002678,0.000431,0.004466
18430000,0.0324,0.013523,0.002678,0.000431,0.004936
18431000,0.0324,0.013523,0.002678,0.000431,0.004819
18432000,0.0324,0.013523,0.002678,0.000431,0.004113
18433000,0.0324,0.013523,0.002678,0.000431,0.005171
18434000,0.0324,0.013523,0.002678,0.000431,0.004819
18435000,0.0324,0.013523,0.002678,0.000431,0.004819
18436000,0.0324,0.013523,0.002678,0.000431,0.003996
18437000,0.0324,0.013523,0.002678,0.000431,0.004113
18438000,0.0324,0.013523,0.002678,0.000431,0.004349
18439000,0.0324,0.013523,0.002678,0.000431,0.005054
18440000,0.0324,0.013523,0.002678,0.000431,0.004466
18441000,0.0324,0.013523,0.002678,0.000431,0.004584
18442000,0.0324,0.013523,0.002678,0.000431,0.003996
18443000,0.0324,0.013523,0.002678,0.000431,0.004466
18444000,0.0324,0.013523,0.002678,0.000431,0.004113
18445000,0.0324,0.013523,0.002678,0.000431,0.004349
18446000,0.0324,0.013523,0.002678,0.000431,0.003996
18447000,0.0324,0.013523,0.002678,0.000431,0.004584
18448000,0.0324,0.013523,0.002678,0.000431,0.003996
18449000,0.0324,0.013523,0.002678,0.000431,0.004349
18450000,0.0324,0.013523,0.002678,0.000431,0.004701
18451000,0.0324,0.013523,0.002678,0.000431,0.004584
18452000,0.0324,0.013523,0.002678,0.000431,0.005171
18453000,0.0324,0.013523,0.002678,0.000431,0.003878
18454000,0.0324,0.013523,0.002678,0.000431,0.004349
18455000,0.0324,0.013523,0.002678,0.000431,0.004349
18456000,0.0324,0.013523,0.002678,0.000431,0.005054
18457000,0.0324,0.013523,0.002678,0.000431,0.004584
18458000,0.0324,0.013523,0.002678,0.000431,0.004584
18459000,0.0324,0.013523,0.002678,0.000431,0.004113
18460000,0.0324,0.013523,0.002678,0.000431,0.004819
18461000,0.0324,0.013523,0.002678,0.000431,0.004584
18462000,0.0324,0.013523,0.002678,0.000431,0.004349
18463000,0.0324,0.013523,0.002678,0.000431,0.003996
18464000,0.0324,0.013523,0.002678,0.000431,0.003878
18465000,0.0324,0.013523,0.002678,0.000431,0.005406
18466000,0.0324,0.013523,0.002678,0.000431,0.003996
18467000,0.0324,0.013523,0.002678,0.000431,0.003878
18468000,0.0324,0.013523,0.002678,0.000431,0.003643
18469000,0.0324,0.013523,0.002678,0.000431,0.003761
18470000,0.0324,0.013523,0.002678,0.000431,0.003996
18471000,0.0324,0.013523,0.002678,0.000431,0.003878
18472000,0.0324,0.013523,0.002678,0.000431,0.003408
18473000,0.0324,0.013523,0.002678,0.000431,0.003761
18474000,0.0324,0.013523,0.002678,0.000431,0.003056
18475000,0.0324,0.013523,0.002678,0.000431,0.003761
18476000,0.0324,0.013523,0.002678,0.000431,0.003526
18477000,0.0324,0.013523,0.002678,0.000431,0.003643
18478000,0.0324,0.013523,0.002678,0.000431,0.003408
18479000,0.0324,0.013523,0.002678,0.000431,0.003291
18480000,0.0324,0.013523,0.002678,0.000431,0.003408
18481000,0.0324,0.013523,0.002678,0.000431,0.003291
18482000,0.0324,0.013523,0.002678,0.000431,0.003643
18483000,0.0324,0.013523,0.002678,0.000431,0.004701
18484000,0.0324,0.013523,0.002678,0.000431,0.003173
18485000,0.0324,0.013523,0.002678,0.000431,0.003878
18486000,0.0324,0.013523,0.002678,0.000431,0.003996
18487000,0.0324,0.013523,0.002678,0.000431,0.003996
18488000,0.0324,0.013523,0.002678,0.000431,0.003643
18489000,0.0324,0.013523,0.002678,0.000431,0.003761
18490000,0.0324,0.013523,0.002678,0.000431,0.003643
18491000,0.0324,0.013523,0.002678,0.000431,0.003408
18492000,0.0324,0.013523,0.002678,0.000431,0.003408
18493000,0.0324,0.013523,0.002678,0.000431,0.003761
18494000,0.0324,0.013523,0.002678,0.000431,0.003643
18495000,0.0324,0.013523,0.002678,0.000431,0.003996
18496000,0.0324,0.013523,0.002678,0.000431,0.003643
18497000,0.0324,0.013523,0.002678,0.000431,0.004113
18498000,0.0324,0.013523,0.002678,0.000431,0.003173
18499000,0.0324,0.013523,0.002678,0.000431,0.003408
18500000,0.0324,0.013523,0.002678,0.000431,0.003761
18501000,0.0324,0.013523,0.002678,0.000431,0.003408
18502000,0.0324,0.013523,0.002678,0.000431,0.003643
18503000,0.0324,0.013523,0.002678,0.000431,0.003408
18504000,0.0324,0.013523,0.002678,0.000431,0.003526
18505000,0.0324,0.013523,0.002678,0.000431,0.003878
18506000,0.0324,0.013523,0.002678,0.000431,0.003408
18507000,0.0324,0.013523,0.002678,0.000431,0.003878
18508000,0.0324,0.013523,0.002678,0.000431,0.003526
18509000,0.0324,0.013523,0.002678,0.000431,0.003643
18510000,0.0324,0.013523,0.002678,0.000431,0.003408
18511000,0.0324,0.013523,0.002678,0.000431,0.004584
18512000,0.0324,0.013523,0.002678,0.000431,0.003173
18513000,0.0324,0.013523,0.002678,0.000431,0.003878
18514000,0.0324,0.013523,0.002678,0.000431,0.003291
18515000,0.0324,0.013523,0.002678,0.000431,0.003761
18516000,0.0324,0.013523,0.002678,0.000431,0.003291
18517000,0.0324,0.013523,0.002678,0.000431,0.003761
18518000,0.0324,0.013523,0.002678,0.000431,0.003408
18519000,0.0324,0.013523,0.002678,0.000431,0.003643
18520000,0.0324,0.013523,0.002678,0.000431,0.004231
18521000,0.0324,0.013523,0.002678,0.000431,0.003173
18522000,0.0324,0.013523,0.002678,0.000431,0.003643
18523000,0.0324,0.013523,0.002678,0.000431,0.004113
18524000,0.0324,0.013523,0.002678,0.000431,0.003526
18525000,0.0324,0.013523,0.002678,0.000431,0.003643
18526000,0.0324,0.013523,0.002678,0.000431,0.003643
18527000,0.0324,0.013523,0.002678,0.000431,0.003761
18528000,0.0324,0.013523,0.002678,0.000431,0.003291
18529000,0.0324,0.013523,0.002678,0.000431,0.003643
18530000,0.0324,0.013523,0.002678,0.000431,0.003526
18531000,0.0324,0.013523,0.002678,0.000431,0.003173
18532000,0.0324,0.013523,0.002678,0.000431,0.003761
18533000,0.0324,0.013523,0.002678,0.000431,0.004113
18534000,0.0324,0.013523,0.002678,0.000431,0.002938
18535000,0.0324,0.013523,0.002678,0.000431,0.002938
18536000,0.0324,0.013523,0.002678,0.000431,0.003643
18537000,0.0324,0.013523,0.002678,0.000431,0.003643
18538000,0.0324,0.013523,0.002678,0.000431,0.003408
18539000,0.0324,0.013523,0.002678,0.000431,0.003643
18540000,0.0324,0.013523,0.002678,0.000431,0.003291
18541000,0.0324,0.013523,0.002678,0.000431,0.003408
18542000,0.0324,0.013523,0.002678,0.000431,0.003291
18543000,0.0324,0.013523,0.002678,0.000431,0.003643
18544000,0.0324,0.013523,0.002678,0.000431,0.003761
18545000,0.0324,0.013523,0.002678,0.000431,0.003173
18546000,0.0324,0.013523,0.002678,0.000431,0.003526
18547000,0.0324,0.013523,0.002678,0.000431,0.003056
18548000,0.0324,0.013523,0.002678,0.000431,0.003878
18549000,0.0324,0.013523,0.002678,0.000431,0.002938
18550000,0.0324,0.013523,0.002678,0.000431,0.003291
18551000,0.0324,0.013523,0.002678,0.000431,0.003643
18552000,0.0324,0.013523,0.002678,0.000431,0.003761
18553000,0.0324,0.013523,0.002678,0.000431,0.003173
18554000,0.0324,0.013523,0.002678,0.000431,0.003526
18555000,0.0324,0.013523,0.002678,0.000431,0.003408
18556000,0.0324,0.013523,0.002678,0.000431,0.003643
18557000,0.0324,0.013523,0.002678,0.000431,0.003056
18558000,0.0324,0.013523,0.002678,0.000431,0.003173
18559000,0.0324,0.013523,0.002678,0.000431,0.003996
18560000,0.0324,0.013523,0.002678,0.000431,0.003526
18561000,0.0324,0.013523,0.002678,0.000431,0.003408
18562000,0.0324,0.013523,0.002678,0.000431,0.003643
18563000,0.0324,0.013523,0.002678,0.000431,0.002821
18564000,0.0324,0.013523,0.002678,0.000431,0.003056
18565000,0.0324,0.013523,0.002678,0.000431,0.003291
18566000,0.0324,0.013523,0.002678,0.000431,0.003526
18567000,0.0324,0.013523,0.002678,0.000431,0.003408
18568000,0.0324,0.013523,0.002678,0.000431,0.003996
18569000,0.0324,0.013523,0.002678,0.000431,0.003878
18570000,0.0324,0.013523,0.002678,0.000431,0.003291
18571000,0.0324,0.013523,0.002678,0.000431,0.003878
18572000,0.0324,0.013523,0.002678,0.000431,0.003408
18573000,0.0324,0.013523,0.002678,0.000431,0.003996
18574000,0.0324,0.013523,0.002678,0.000431,0.003761
18575000,0.0324,0.013523,0.002678,0.000431,0.003173
18576000,0.0324,0.013523,0.002678,0.000431,0.003761
18577000,0.0324,0.013523,0.002678,0.000431,0.003878
18578000,0.0324,0.013523,0.002678,0.000431,0.003996
18579000,0.0324,0.013523,0.002678,0.000431,0.003291
18580000,0.0324,0.013523,0.002678,0.000431,0.003643
18581000,0.0324,0.013523,0.002678,0.000431,0.003996
18582000,0.0324,0.013523,0.002678,0.000431,0.003408
18583000,0.0324,0.013523,0.002678,0.000431,0.003291
18584000,0.0324,0.013523,0.002678,0.000431,0.003291
18585000,0.0324,0.013523,0.002678,0.000431,0.003056
18586000,0.0324,0.013523,0.002678,0.000431,0.004113
18587000,0.0324,0.013523,0.002678,0.000431,0.004113
18588000,0.0324,0.013523,0.002678,0.000431,0.002351
18589000,0.0324,0.013523,0.002678,0.000431,0.002938
18590000,0.0324,0.013523,0.002678,0.000431,0.002351
18591000,0.0324,0.013523,0.002678,0.000431,0.002938
18592000,0.0324,0.013523,0.002678,0.000431,0.002468
18593000,0.0324,0.013523,0.002678,0.000431,0.002821
18594000,0.0324,0.013523,0.002678,0.000431,0.002586
18595000,0.0324,0.013523,0.002678,0.000431,0.003408
18596000,0.0324,0.013523,0.002678,0.000431,0.002821
18597000,0.0324,0.013523,0.002678,0.000431,0.002586
18598000,0.0324,0.013523,0.002678,0.000431,0.002468
18599000,0.0324,0.013523,0.002678,0.000431,0.002468
18600000,0.0324,0.013523,0.002678,0.000431,0.002938
18601000,0.0324,0.013523,0.002678,0.000431,0.002703
18602000,0.0324,0.013523,0.002678,0.000431,0.003056
18603000,0.0324,0.013523,0.002678,0.000431,0.002703
18604000,0.0324,0.013523,0.002678,0.000431,0.003056
18605000,0.0324,0.013523,0.002678,0.000431,0.002468
18606000,0.0324,0.013523,0.002678,0.000431,0.002821
18607000,0.0324,0.013523,0.002678,0.000431,0.002468
18608000,0.0324,0.013523,0.002678,0.000431,0.002703
18609000,0.0324,0.013523,0.002678,0.000431,0.002821
18610000,0.0324,0.013523,0.002678,0.000431,0.002821
18611000,0.0324,0.013523,0.002678,0.000431,0.003056
18612000,0.0324,0.013523,0.002678,0.000431,0.002821
18613000,0.0324,0.013523,0.002678,0.000431,0.003056
18614000,0.0324,0.013523,0.002678,0.000431,0.002233
18615000,0.0324,0.013523,0.002678,0.000431,0.002938
18616000,0.0324,0.013523,0.002678,0.000431,0.002821
18617000,0.0324,0.013523,0.002678,0.000431,0.002938
18618000,0.0324,0.013523,0.002678,0.000431,0.002821
18619000,0.0324,0.013523,0.002678,0.000431,0.002938
18620000,0.0324,0.013523,0.002678,0.000431,0.002586
18621000,0.0324,0.013523,0.002678,0.000431,0.002703
18622000,0.0324,0.013523,0.002678,0.000431,0.002468
18623000,0.0324,0.013523,0.002678,0.000431,0.003056
18624000,0.0324,0.013523,0.002678,0.000431,0.002586
18625000,0.0324,0.013523,0.002678,0.000431,0.003173
18626000,0.0324,0.013523,0.002678,0.000431,0.002703
18627000,0.0324,0.013523,0.002678,0.000431,0.002351
18628000,0.0324,0.013523,0.002678,0.000431,0.002116
18629000,0.0324,0.013523,0.002678,0.000431,0.002233
18630000,0.0324,0.013523,0.002678,0.000431,0.002468
18631000,0.0324,0.013523,0.002678,0.000431,0.002468
18632000,0.0324,0.013523,0.002678,0.000431,0.002468
18633000,0.0324,0.013523,0.002678,0.000431,0.001998
18634000,0.0324,0.013523,0.002678,0.000431,0.002116
18635000,0.0324,0.013523,0.002678,0.000431,0.002468
18636000,0.0324,0.013523,0.002678,0.000431,0.002116
18637000,0.0324,0.013523,0.002678,0.000431,0.002233
18638000,0.0324,0.013523,0.002678,0.000431,0.001998
18639000,0.0324,0.013523,0.002678,0.000431,0.002233
18640000,0.0324,0.013523,0.002678,0.000431,0.001880
18641000,0.0324,0.013523,0.002678,0.000431,0.002351
18642000,0.0324,0.013523,0.002678,0.000431,0.002351
18643000,0.0324,0.013523,0.002678,0.000431,0.002468
18644000,0.0324,0.013523,0.002678,0.000431,0.001998
18645000,0.0324,0.013523,0.002678,0.000431,0.002233
18646000,0.0324,0.013523,0.002678,0.000431,0.002468
18647000,0.0324,0.013523,0.002678,0.000431,0.002116
18648000,0.0324,0.013523,0.002678,0.000431,0.002233
18649000,0.0324,0.013523,0.002678,0.000431,0.002351
18650000,0.0324,0.013523,0.002678,0.000431,0.002468
18651000,0.0324,0.013523,0.002678,0.000431,0.002351
18652000,0.0324,0.013523,0.002678,0.000431,0.002116
18653000,0.0324,0.013523,0.002678,0.000431,0.002351
18654000,0.0324,0.013523,0.002678,0.000431,0.002116
18655000,0.0324,0.013523,0.002678,0.000431,0.002351
18656000,0.0324,0.013523,0.002678,0.000431,0.002351
18657000,0.0324,0.013523,0.002678,0.000431,0.002233
18658000,0.0324,0.013523,0.002678,0.000431,0.001998
18659000,0.0324,0.013523,0.002678,0.000431,0.002351
18660000,0.0324,0.013523,0.002678,0.000431,0.002116
18661000,0.0324,0.013523,0.002678,0.000431,0.002233
18662000,0.0324,0.013523,0.002678,0.000431,0.002938
18663000,0.0324,0.013523,0.002678,0.000431,0.001528
18664000,0.0324,0.013523,0.002678,0.000431,0.001528
18665000,0.0324,0.013523,0.002678,0.000431,0.001528
18666000,0.0324,0.013523,0.002678,0.000431,0.001763
18667000,0.0324,0.013523,0.002678,0.000431,0.001528
18668000,0.0324,0.013523,0.002678,0.000431,0.001763
18669000,0.0324,0.013523,0.002678,0.000431,0.001410
18670000,0.0324,0.013523,0.002678,0.000431,0.001645
18671000,0.0324,0.013523,0.002678,0.000431,0.001645
18672000,0.0324,0.013523,0.002678,0.000431,0.001528
18673000,0.0324,0.013523,0.002678,0.000431,0.001763
18674000,0.0324,0.013523,0.002678,0.000431,0.001293
18675000,0.0324,0.013523,0.002678,0.000431,0.001763
18676000,0.0324,0.013523,0.002678,0.000431,0.001410
18677000,0.0324,0.013523,0.002678,0.000431,0.001645
18678000,0.0324,0.013523,0.002678,0.000431,0.001410
18679000,0.0324,0.013523,0.002678,0.000431,0.001528
18680000,0.0324,0.013523,0.002678,0.000431,0.001528
18681000,0.0324,0.013523,0.002678,0.000431,0.001410
18682000,0.0324,0.013523,0.002678,0.000431,0.001645
18683000,0.0324,0.013523,0.002678,0.000431,0.001763
18684000,0.0324,0.013523,0.002678,0.000431,0.001528
18685000,0.0324,0.013523,0.002678,0.000431,0.001528
18686000,0.0324,0.013523,0.002678,0.000431,0.001410
18687000,0.0324,0.013523,0.002678,0.000431,0.001528
18688000,0.0324,0.013523,0.002678,0.000431,0.001410
18689000,0.0324,0.013523,0.002678,0.000431,0.001410
18690000,0.0324,0.013523,0.002678,0.000431,0.001645
18691000,0.0324,0.013523,0.002678,0.000431,0.001528
18692000,0.0324,0.013523,0.002678,0.000431,0.001410
18693000,0.0324,0.013523,0.002678,0.000431,0.001293
18694000,0.0324,0.013523,0.002678,0.000431,0.001528
18695000,0.0324,0.013523,0.002678,0.000431,0.001528
18696000,0.0324,0.013523,0.002678,0.000431,0.001528
18697000,0.0324,0.013523,0.002678,0.000431,0.001645
18698000,0.0324,0.013523,0.002678,0.000431,0.001645
18699000,0.0324,0.013523,0.002678,0.000431,0.001410
18700000,0.0324,0.013523,0.002678,0.000431,0.001410
18701000,0.0324,0.013523,0.002678,0.000431,0.001528
18702000,0.0324,0.013523,0.002678,0.000431,0.001645
18703000,0.0324,0.013523,0.002678,0.000431,0.001528
18704000,0.0324,0.013523,0.002678,0.000431,0.001293
18705000,0.0324,0.013523,0.002678,0.000431,0.001528
18706000,0.0324,0.013523,0.002678,0.000431,0.001763
18707000,0.0324,0.013523,0.002678,0.000431,0.001410
18708000,0.0324,0.013523,0.002678,0.000431,0.001763
18709000,0.0324,0.013523,0.002678,0.000431,0.001645
18710000,0.0324,0.013523,0.002678,0.000431,0.001175
18711000,0.0324,0.013523,0.002678,0.000431,0.001763
18712000,0.0324,0.013523,0.002678,0.000431,0.001528
18713000,0.0324,0.013523,0.002678,0.000431,0.001528
18714000,0.0324,0.013523,0.002678,0.000431,0.001645
18715000,0.0324,0.013523,0.002678,0.000431,0.001645
18716000,0.0324,0.013523,0.002678,0.000431,0.001645
18717000,0.0324,0.013523,0.002678,0.000431,0.001410
18718000,0.0324,0.013523,0.002678,0.000431,0.001410
18719000,0.0324,0.013523,0.002678,0.000431,0.001645
18720000,0.0324,0.013523,0.002678,0.000431,0.001763
18721000,0.0324,0.013523,0.002678,0.000431,0.001645
18722000,0.0324,0.013523,0.002678,0.000431,0.001528
18723000,0.0324,0.013523,0.002678,0.000431,0.001528
18724000,0.0324,0.013523,0.002678,0.000431,0.001763
18725000,0.0324,0.013523,0.002678,0.000431,0.001410
18726000,0.0324,0.013523,0.002678,0.000431,0.001763
18727000,0.0324,0.013523,0.002678,0.000431,0.001645
18728000,0.0324,0.013523,0.002678,0.000431,0.001410
18729000,0.0324,0.013523,0.002678,0.000431,0.001880
18730000,0.0324,0.013523,0.002678,0.000431,0.001528
18731000,0.0324,0.013523,0.002678,0.000431,0.001410
18732000,0.0324,0.013523,0.002678,0.000431,0.001645
18733000,0.0324,0.013523,0.002678,0.000431,0.001293
18734000,0.0324,0.013523,0.002678,0.000431,0.001645
18735000,0.0324,0.013523,0.002678,0.000431,0.001528
18736000,0.0324,0.013523,0.002678,0.000431,0.001528
18737000,0.0324,0.013523,0.002678,0.000431,0.001645
18738000,0.0324,0.013523,0.002678,0.000431,0.001645
18739000,0.0324,0.013523,0.002678,0.000431,0.001645
18740000,0.0324,0.013523,0.002678,0.000431,0.001410
18741000,0.0324,0.013523,0.002678,0.000431,0.001528
18742000,0.0324,0.013523,0.002678,0.000431,0.001528
18743000,0.0324,0.013523,0.002678,0.000431,0.001645
18744000,0.0324,0.013523,0.002678,0.000431,0.001763
18745000,0.0324,0.013523,0.002678,0.000431,0.001293
18746000,0.0324,0.013523,0.002678,0.000431,0.001880
18747000,0.0324,0.013523,0.002678,0.000431,0.001528
18748000,0.0324,0.013523,0.002678,0.000431,0.001410
18749000,0.0324,0.013523,0.002678,0.000431,0.001763
18750000,0.0324,0.013523,0.002678,0.000431,0.001528
18751000,0.0324,0.013523,0.002678,0.000431,0.001410
18752000,0.0324,0.013523,0.002678,0.000431,0.001763
18753000,0.0324,0.013523,0.002678,0.000431,0.001410
18754000,0.0324,0.013523,0.002678,0.000431,0.001410
18755000,0.0324,0.013523,0.002678,0.000431,0.001293
18756000,0.0324,0.013523,0.002678,0.000431,0.001763
18757000,0.0324,0.013523,0.002678,0.000431,0.001528
18758000,0.0324,0.013523,0.002678,0.000431,0.001410
18759000,0.0324,0.013523,0.002678,0.000431,0.001645
18760000,0.0324,0.013523,0.002678,0.000431,0.001410
18761000,0.0324,0.013523,0.002678,0.000431,0.001645
18762000,0.0324,0.013523,0.002678,0.000431,0.001645
18763000,0.0324,0.013523,0.002678,0.000431,0.001410
18764000,0.0324,0.013523,0.002678,0.000431,0.001528
18765000,0.0324,0.013523,0.002678,0.000431,0.001410
18766000,0.0324,0.013523,0.002678,0.000431,0.001528
18767000,0.0324,0.013523,0.002678,0.000431,0.001645
18768000,0.0324,0.013523,0.002678,0.000431,0.001410
18769000,0.0324,0.013523,0.002678,0.000431,0.001645
18770000,0.0324,0.013523,0.002678,0.000431,0.001528
18771000,0.0324,0.013523,0.002678,0.000431,0.001410
18772000,0.0324,0.013523,0.002678,0.000431,0.001410
18773000,0.0324,0.013523,0.002678,0.000431,0.001410
18774000,0.0324,0.013523,0.002678,0.000431,0.001410
18775000,0.0324,0.013523,0.002678,0.000431,0.001410
18776000,0.0324,0.013523,0.002678,0.000431,0.001410
18777000,0.0324,0.013523,0.002678,0.000431,0.001880
18778000,0.0324,0.013523,0.002678,0.000431,0.001528
18779000,0.0324,0.013523,0.002678,0.000431,0.001528
18780000,0.0324,0.013523,0.002678,0.000431,0.001528
18781000,0.0324,0.013523,0.002678,0.000431,0.001528
18782000,0.0324,0.013523,0.002678,0.000431,0.001528
18783000,0.0324,0.013523,0.002678,0.000431,0.001410
18784000,0.0324,0.013523,0.002678,0.000431,0.001763
18785000,0.0324,0.013523,0.002678,0.000431,0.001528
18786000,0.0324,0.013523,0.002678,0.000431,0.001410
18787000,0.0324,0.013523,0.002678,0.000431,0.001410
18788000,0.0324,0.013523,0.002678,0.000431,0.001528
18789000,0.0324,0.013523,0.002678,0.000431,0.001645
18790000,0.0324,0.013523,0.002678,0.000431,0.001175
18791000,0.0324,0.013523,0.002678,0.000431,0.001528
18792000,0.0324,0.013523,0.002678,0.000431,0.001410
18793000,0.0324,0.013523,0.002678,0.000431,0.001645
18794000,0.0324,0.013523,0.002678,0.000431,0.001645
18795000,0.0324,0.013523,0.002678,0.000431,0.001410
18796000,0.0324,0.013523,0.002678,0.000431,0.001528
18797000,0.0324,0.013523,0.002678,0.000431,0.001763
18798000,0.0324,0.013523,0.002678,0.000431,0.001410
18799000,0.0324,0.013523,0.002678,0.000431,0.001645
18800000,0.0324,0.013523,0.002678,0.000431,0.001293
18801000,0.0324,0.013523,0.002678,0.000431,0.001645
18802000,0.0324,0.013523,0.002678,0.000431,0.001763
18803000,0.0324,0.013523,0.002678,0.000431,0.001528
18804000,0.0324,0.013523,0.002678,0.000431,0.001763
18805000,0.0324,0.013523,0.002678,0.000431,0.001293
18806000,0.0324,0.013523,0.002678,0.000431,0.001293
18807000,0.0324,0.013523,0.002678,0.000431,0.001528
18808000,0.0324,0.013523,0.002678,0.000431,0.001763
18809000,0.0324,0.013523,0.002678,0.000431,0.001410
18810000,0.0324,0.013523,0.002678,0.000431,0.001293
18811000,0.0324,0.013523,0.002678,0.000431,0.001763
18812000,0.0324,0.013523,0.002678,0.000431,0.001763
18813000,0.0324,0.013523,0.002678,0.000431,0.001528
18814000,0.0324,0.013523,0.002678,0.000431,0.001645
18815000,0.0324,0.013523,0.002678,0.000431,0.001645
18816000,0.0324,0.013523,0.002678,0.000431,0.001410
18817000,0.0324,0.013523,0.002678,0.000431,0.001528
18818000,0.0324,0.013523,0.002678,0.000431,0.001645
18819000,0.0324,0.013523,0.002678,0.000431,0.001645
18820000,0.0324,0.013523,0.002678,0.000431,0.001410
18821000,0.0324,0.013523,0.002678,0.000431,0.001763
18822000,0.0324,0.013523,0.002678,0.000431,0.001293
18823000,0.0324,0.013523,0.002678,0.000431,0.001528
18824000,0.0324,0.013523,0.002678,0.000431,0.001645
18825000,0.0324,0.013523,0.002678,0.000431,0.001645
18826000,0.0324,0.013523,0.002678,0.000431,0.001528
18827000,0.0324,0.013523,0.002678,0.000431,0.001645
18828000,0.0324,0.013523,0.002678,0.000431,0.001763
18829000,0.0324,0.013523,0.002678,0.000431,0.001293
18830000,0.0324,0.013523,0.002678,0.000431,0.001763
18831000,0.0324,0.013523,0.002678,0.000431,0.001293
18832000,0.0324,0.013523,0.002678,0.000431,0.001645
18833000,0.0324,0.013523,0.002678,0.000431,0.001410
18834000,0.0324,0.013523,0.002678,0.000431,0.001880
18835000,0.0324,0.013523,0.002678,0.000431,0.001410
18836000,0.0324,0.013523,0.002678,0.000431,0.001645
18837000,0.0324,0.013523,0.002678,0.000431,0.001645
18838000,0.0324,0.013523,0.002678,0.000431,0.001528
18839000,0.0324,0.013523,0.002678,0.000431,0.001410
18840000,0.0324,0.013523,0.002678,0.000431,0.001528
18841000,0.0324,0.013523,0.002678,0.000431,0.001645
18842000,0.0324,0.013523,0.002678,0.000431,0.001293
18843000,0.0324,0.013523,0.002678,0.000431,0.001528
18844000,0.0324,0.013523,0.002678,0.000431,0.001645
18845000,0.0324,0.013523,0.002678,0.000431,0.001410
18846000,0.0324,0.013523,0.002678,0.000431,0.001410
18847000,0.0324,0.013523,0.002678,0.000431,0.001528
18848000,0.0324,0.013523,0.002678,0.000431,0.001410
18849000,0.0324,0.013523,0.002678,0.000431,0.001645
18850000,0.0324,0.013523,0.002678,0.000431,0.001763
18851000,0.0324,0.013523,0.002678,0.000431,0.001528
18852000,0.0324,0.013523,0.002678,0.000431,0.001645
18853000,0.0324,0.013523,0.002678,0.000431,0.001645
18854000,0.0324,0.013523,0.002678,0.000431,0.001528
18855000,0.0324,0.013523,0.002678,0.000431,0.001528
18856000,0.0324,0.013523,0.002678,0.000431,0.001763
18857000,0.0324,0.013523,0.002678,0.000431,0.001645
18858000,0.0324,0.013523,0.002678,0.000431,0.001528
18859000,0.0324,0.013523,0.002678,0.000431,0.001293
18860000,0.0324,0.013523,0.002678,0.000431,0.001645
18861000,0.0324,0.013523,0.002678,0.000431,0.001645
18862000,0.0324,0.013523,0.002678,0.000431,0.001528
18863000,0.0324,0.013523,0.002678,0.000431,0.001763
18864000,0.0324,0.013523,0.002678,0.000431,0.001175
18865000,0.0324,0.013523,0.002678,0.000431,0.001880
18866000,0.0324,0.013523,0.002678,0.000431,0.001410
18867000,0.0324,0.013523,0.002678,0.000431,0.001528
18868000,0.0324,0.013523,0.002678,0.000431,0.001528
18869000,0.0324,0.013523,0.002678,0.000431,0.001410
18870000,0.0324,0.013523,0.002678,0.000431,0.001528
18871000,0.0324,0.013523,0.002678,0.000431,0.001528
18872000,0.0324,0.013523,0.002678,0.000431,0.001410
18873000,0.0324,0.013523,0.002678,0.000431,0.001763
18874000,0.0324,0.013523,0.002678,0.000431,0.001528
18875000,0.0324,0.013523,0.002678,0.000431,0.001763
18876000,0.0324,0.013523,0.002678,0.000431,0.001645
18877000,0.0324,0.013523,0.002678,0.000431,0.001528
18878000,0.0324,0.013523,0.002678,0.000431,0.001293
18879000,0.0324,0.013523,0.002678,0.000431,0.001410
18880000,0.0324,0.013523,0.002678,0.000431,0.001645
18881000,0.0324,0.013523,0.002678,0.000431,0.001528
18882000,0.0324,0.013523,0.002678,0.000431,0.001528
18883000,0.0324,0.013523,0.002678,0.000431,0.001880
18884000,0.0324,0.013523,0.002678,0.000431,0.001410
18885000,0.0324,0.013523,0.002678,0.000431,0.001645
18886000,0.0324,0.013523,0.002678,0.000431,0.001645
18887000,0.0324,0.013523,0.002678,0.000431,0.001528
18888000,0.0324,0.013523,0.002678,0.000431,0.001528
18889000,0.0324,0.013523,0.002678,0.000431,0.001645
18890000,0.0324,0.013523,0.002678,0.000431,0.001410
18891000,0.0324,0.013523,0.002678,0.000431,0.001528
18892000,0.0324,0.013523,0.002678,0.000431,0.001410
18893000,0.0324,0.013523,0.002678,0.000431,0.001528
18894000,0.0324,0.013523,0.002678,0.000431,0.001763
18895000,0.0324,0.013523,0.002678,0.000431,0.001293
18896000,0.0324,0.013523,0.002678,0.000431,0.001763
18897000,0.0324,0.013523,0.002678,0.000431,0.001528
18898000,0.0324,0.013523,0.002678,0.000431,0.001410
18899000,0.0324,0.013523,0.002678,0.000431,0.001880
18900000,0.0324,0.013523,0.002678,0.000431,0.001410
18901000,0.0324,0.013523,0.002678,0.000431,0.001645
18902000,0.0324,0.013523,0.002678,0.000431,0.001763
18903000,0.0324,0.013523,0.002678,0.000431,0.001528
18904000,0.0324,0.013523,0.002678,0.000431,0.001645
18905000,0.0324,0.013523,0.002678,0.000431,0.001645
18906000,0.0324,0.013523,0.002678,0.000431,0.001410
18907000,0.0324,0.013523,0.002678,0.000431,0.001763
18908000,0.0324,0.013523,0.002678,0.000431,0.001410
18909000,0.0324,0.013523,0.002678,0.000431,0.001410
18910000,0.0324,0.013523,0.002678,0.000431,0.001410
18911000,0.0324,0.013523,0.002678,0.000431,0.001410
18912000,0.0324,0.013523,0.002678,0.000431,0.001528
18913000,0.0324,0.013523,0.002678,0.000431,0.001528
18914000,0.0324,0.013523,0.002678,0.000431,0.001528
18915000,0.0324,0.013523,0.002678,0.000431,0.001410
18916000,0.0324,0.013523,0.002678,0.000431,0.001645
18917000,0.0324,0.013523,0.002678,0.000431,0.001645
18918000,0.0324,0.013523,0.002678,0.000431,0.001293
18919000,0.0324,0.013523,0.002678,0.000431,0.001763
18920000,0.0324,0.013523,0.002678,0.000431,0.001410
18921000,0.0324,0.013523,0.002678,0.000431,0.001880
18922000,0.0324,0.013523,0.002678,0.000431,0.001293
18923000,0.0324,0.013523,0.002678,0.000431,0.001528
18924000,0.0324,0.013523,0.002678,0.000431,0.001410
18925000,0.0324,0.013523,0.002678,0.000431,0.001410
18926000,0.0324,0.013523,0.002678,0.000431,0.001763
18927000,0.0324,0.013523,0.002678,0.000431,0.001293
18928000,0.0324,0.013523,0.002678,0.000431,0.001528
18929000,0.0324,0.013523,0.002678,0.000431,0.001410
18930000,0.0324,0.013523,0.002678,0.000431,0.001410
18931000,0.0324,0.013523,0.002678,0.000431,0.001763
18932000,0.0324,0.013523,0.002678,0.000431,0.001293
18933000,0.0324,0.013523,0.002678,0.000431,0.001528
18934000,0.0324,0.013523,0.002678,0.000431,0.001528
18935000,0.0324,0.013523,0.002678,0.000431,0.001528
18936000,0.0324,0.013523,0.002678,0.000431,0.001528
18937000,0.0324,0.013523,0.002678,0.000431,0.001763
18938000,0.0324,0.013523,0.002678,0.000431,0.001645
18939000,0.0324,0.013523,0.002678,0.000431,0.001293
18940000,0.0324,0.013523,0.002678,0.000431,0.001528
18941000,0.0324,0.013523,0.002678,0.000431,0.001528
18942000,0.0324,0.013523,0.002678,0.000431,0.001528
18943000,0.0324,0.013523,0.002678,0.000431,0.001293
18944000,0.0324,0.013523,0.002678,0.000431,0.001528
18945000,0.0324,0.013523,0.002678,0.000431,0.001763
18946000,0.0324,0.013523,0.002678,0.000431,0.001528
18947000,0.0324,0.013523,0.002678,0.000431,0.001645
18948000,0.0324,0.013523,0.002678,0.000431,0.001293
18949000,0.0324,0.013523,0.002678,0.000431,0.001528
18950000,0.0324,0.013523,0.002678,0.000431,0.001763
18951000,0.0324,0.013523,0.002678,0.000431,0.001528
18952000,0.0324,0.013523,0.002678,0.000431,0.001645
18953000,0.0324,0.013523,0.002678,0.000431,0.001528
18954000,0.0324,0.013523,0.002678,0.000431,0.001528
18955000,0.0324,0.013523,0.002678,0.000431,0.001645
18956000,0.0324,0.013523,0.002678,0.000431,0.001528
18957000,0.0324,0.013523,0.002678,0.000431,0.001528
18958000,0.0324,0.013523,0.002678,0.000431,0.001645
18959000,0.0324,0.013523,0.002678,0.000431,0.001410
18960000,0.0324,0.013523,0.002678,0.000431,0.001763
18961000,0.0324,0.013523,0.002678,0.000431,0.001528
18962000,0.0324,0.013523,0.002678,0.000431,0.001528
18963000,0.0324,0.013523,0.002678,0.000431,0.001645
18964000,0.0324,0.013523,0.002678,0.000431,0.001528
18965000,0.0324,0.013523,0.002678,0.000431,0.001293
18966000,0.0324,0.013523,0.002678,0.000431,0.001528
18967000,0.0324,0.013523,0.002678,0.000431,0.001528
18968000,0.0324,0.013523,0.002678,0.000431,0.001528
18969000,0.0324,0.013523,0.002678,0.000431,0.001528
18970000,0.0324,0.013523,0.002678,0.000431,0.001645
18971000,0.0324,0.013523,0.002678,0.000431,0.001763
18972000,0.0324,0.013523,0.002678,0.000431,0.001410
18973000,0.0324,0.013523,0.002678,0.000431,0.001528
18974000,0.0324,0.013523,0.002678,0.000431,0.001410
18975000,0.0324,0.013523,0.002678,0.000431,0.001645
18976000,0.0324,0.013523,0.002678,0.000431,0.001645
18977000,0.0324,0.013523,0.002678,0.000431,0.001645
18978000,0.0324,0.013523,0.002678,0.000431,0.001410
18979000,0.0324,0.013523,0.002678,0.000431,0.001175
18980000,0.0324,0.013523,0.002678,0.000431,0.001763
18981000,0.0324,0.013523,0.002678,0.000431,0.001528
18982000,0.0324,0.013523,0.002678,0.000431,0.001410
18983000,0.0324,0.013523,0.002678,0.000431,0.001645
18984000,0.0324,0.013523,0.002678,0.000431,0.001293
18985000,0.0324,0.013523,0.002678,0.000431,0.001880
18986000,0.0324,0.013523,0.002678,0.000431,0.001528
18987000,0.0324,0.013523,0.002678,0.000431,0.001528
18988000,0.0324,0.013523,0.002678,0.000431,0.001645
18989000,0.0324,0.013523,0.002678,0.000431,0.001528
18990000,0.0324,0.013523,0.002678,0.000431,0.001645
18991000,0.0324,0.013523,0.002678,0.000431,0.001528
18992000,0.0324,0.013523,0.002678,0.000431,0.001528
18993000,0.0324,0.013523,0.002678,0.000431,0.001763
18994000,0.0324,0.013523,0.002678,0.000431,0.001410
18995000,0.0324,0.013523,0.002678,0.000431,0.001763
18996000,0.0324,0.013523,0.002678,0.000431,0.001410
18997000,0.0324,0.013523,0.002678,0.000431,0.001410
18998000,0.0324,0.013523,0.002678,0.000431,0.001645
18999000,0.0324,0.013523,0.002678,0.000431,0.001645
