Cycle,Area(mm^2),PeakDynamic(W),SubthresholdLeakage(W),GateLeakage(W),RunTimeDynamic(W)
6000000,0.0324,0.013523,0.002678,0.000431,0.002233
6001000,0.0324,0.013523,0.002678,0.000431,0.001998
6002000,0.0324,0.013523,0.002678,0.000431,0.002468
6003000,0.0324,0.013523,0.002678,0.000431,0.002116
6004000,0.0324,0.013523,0.002678,0.000431,0.001880
6005000,0.0324,0.013523,0.002678,0.000431,0.002351
6006000,0.0324,0.013523,0.002678,0.000431,0.002351
6007000,0.0324,0.013523,0.002678,0.000431,0.001880
6008000,0.0324,0.013523,0.002678,0.000431,0.002116
6009000,0.0324,0.013523,0.002678,0.000431,0.002468
6010000,0.0324,0.013523,0.002678,0.000431,0.002116
6011000,0.0324,0.013523,0.002678,0.000431,0.002703
6012000,0.0324,0.013523,0.002678,0.000431,0.002233
6013000,0.0324,0.013523,0.002678,0.000431,0.001763
6014000,0.0324,0.013523,0.002678,0.000431,0.002703
6015000,0.0324,0.013523,0.002678,0.000431,0.001998
6016000,0.0324,0.013523,0.002678,0.000431,0.002351
6017000,0.0324,0.013523,0.002678,0.000431,0.002233
6018000,0.0324,0.013523,0.002678,0.000431,0.002586
6019000,0.0324,0.013523,0.002678,0.000431,0.002468
6020000,0.0324,0.013523,0.002678,0.000431,0.001880
6021000,0.0324,0.013523,0.002678,0.000431,0.002468
6022000,0.0324,0.013523,0.002678,0.000431,0.002116
6023000,0.0324,0.013523,0.002678,0.000431,0.002233
6024000,0.0324,0.013523,0.002678,0.000431,0.002351
6025000,0.0324,0.013523,0.002678,0.000431,0.002116
6026000,0.0324,0.013523,0.002678,0.000431,0.002468
6027000,0.0324,0.013523,0.002678,0.000431,0.002586
6028000,0.0324,0.013523,0.002678,0.000431,0.002116
6029000,0.0324,0.013523,0.002678,0.000431,0.002233
6030000,0.0324,0.013523,0.002678,0.000431,0.002351
6031000,0.0324,0.013523,0.002678,0.000431,0.002116
6032000,0.0324,0.013523,0.002678,0.000431,0.002116
6033000,0.0324,0.013523,0.002678,0.000431,0.002233
6034000,0.0324,0.013523,0.002678,0.000431,0.002586
6035000,0.0324,0.013523,0.002678,0.000431,0.001763
6036000,0.0324,0.013523,0.002678,0.000431,0.002233
6037000,0.0324,0.013523,0.002678,0.000431,0.002116
6038000,0.0324,0.013523,0.002678,0.000431,0.002116
6039000,0.0324,0.013523,0.002678,0.000431,0.002233
6040000,0.0324,0.013523,0.002678,0.000431,0.002233
6041000,0.0324,0.013523,0.002678,0.000431,0.002351
6042000,0.0324,0.013523,0.002678,0.000431,0.002116
6043000,0.0324,0.013523,0.002678,0.000431,0.002468
6044000,0.0324,0.013523,0.002678,0.000431,0.002233
6045000,0.0324,0.013523,0.002678,0.000431,0.002116
6046000,0.0324,0.013523,0.002678,0.000431,0.002351
6047000,0.0324,0.013523,0.002678,0.000431,0.002468
6048000,0.0324,0.013523,0.002678,0.000431,0.001998
6049000,0.0324,0.013523,0.002678,0.000431,0.001645
6050000,0.0324,0.013523,0.002678,0.000431,0.002233
6051000,0.0324,0.013523,0.002678,0.000431,0.002468
6052000,0.0324,0.013523,0.002678,0.000431,0.002233
6053000,0.0324,0.013523,0.002678,0.000431,0.002821
6054000,0.0324,0.013523,0.002678,0.000431,0.002468
6055000,0.0324,0.013523,0.002678,0.000431,0.002821
6056000,0.0324,0.013523,0.002678,0.000431,0.002233
6057000,0.0324,0.013523,0.002678,0.000431,0.002351
6058000,0.0324,0.013523,0.002678,0.000431,0.002233
6059000,0.0324,0.013523,0.002678,0.000431,0.002586
6060000,0.0324,0.013523,0.002678,0.000431,0.002468
6061000,0.0324,0.013523,0.002678,0.000431,0.002703
6062000,0.0324,0.013523,0.002678,0.000431,0.002116
6063000,0.0324,0.013523,0.002678,0.000431,0.002116
6064000,0.0324,0.013523,0.002678,0.000431,0.002468
6065000,0.0324,0.013523,0.002678,0.000431,0.001998
6066000,0.0324,0.013523,0.002678,0.000431,0.001528
6067000,0.0324,0.013523,0.002678,0.000431,0.002116
6068000,0.0324,0.013523,0.002678,0.000431,0.002351
6069000,0.0324,0.013523,0.002678,0.000431,0.002586
6070000,0.0324,0.013523,0.002678,0.000431,0.001998
6071000,0.0324,0.013523,0.002678,0.000431,0.002586
6072000,0.0324,0.013523,0.002678,0.000431,0.001880
6073000,0.0324,0.013523,0.002678,0.000431,0.002116
6074000,0.0324,0.013523,0.002678,0.000431,0.002351
6075000,0.0324,0.013523,0.002678,0.000431,0.002351
6076000,0.0324,0.013523,0.002678,0.000431,0.002116
6077000,0.0324,0.013523,0.002678,0.000431,0.002468
6078000,0.0324,0.013523,0.002678,0.000431,0.002116
6079000,0.0324,0.013523,0.002678,0.000431,0.001880
6080000,0.0324,0.013523,0.002678,0.000431,0.002233
6081000,0.0324,0.013523,0.002678,0.000431,0.002468
6082000,0.0324,0.013523,0.002678,0.000431,0.002351
6083000,0.0324,0.013523,0.002678,0.000431,0.001998
6084000,0.0324,0.013523,0.002678,0.000431,0.002351
6085000,0.0324,0.013523,0.002678,0.000431,0.002703
6086000,0.0324,0.013523,0.002678,0.000431,0.002468
6087000,0.0324,0.013523,0.002678,0.000431,0.002586
6088000,0.0324,0.013523,0.002678,0.000431,0.002821
6089000,0.0324,0.013523,0.002678,0.000431,0.002233
6090000,0.0324,0.013523,0.002678,0.000431,0.002468
6091000,0.0324,0.013523,0.002678,0.000431,0.002116
6092000,0.0324,0.013523,0.002678,0.000431,0.002938
6093000,0.0324,0.013523,0.002678,0.000431,0.002351
6094000,0.0324,0.013523,0.002678,0.000431,0.002468
6095000,0.0324,0.013523,0.002678,0.000431,0.003056
6096000,0.0324,0.013523,0.002678,0.000431,0.002938
6097000,0.0324,0.013523,0.002678,0.000431,0.002586
6098000,0.0324,0.013523,0.002678,0.000431,0.002938
6099000,0.0324,0.013523,0.002678,0.000431,0.002351
6100000,0.0324,0.013523,0.002678,0.000431,0.002586
6101000,0.0324,0.013523,0.002678,0.000431,0.001998
6102000,0.0324,0.013523,0.002678,0.000431,0.002703
6103000,0.0324,0.013523,0.002678,0.000431,0.002351
6104000,0.0324,0.013523,0.002678,0.000431,0.002351
6105000,0.0324,0.013523,0.002678,0.000431,0.002233
6106000,0.0324,0.013523,0.002678,0.000431,0.002468
6107000,0.0324,0.013523,0.002678,0.000431,0.002351
6108000,0.0324,0.013523,0.002678,0.000431,0.002233
6109000,0.0324,0.013523,0.002678,0.000431,0.002233
6110000,0.0324,0.013523,0.002678,0.000431,0.002233
6111000,0.0324,0.013523,0.002678,0.000431,0.002821
6112000,0.0324,0.013523,0.002678,0.000431,0.002586
6113000,0.0324,0.013523,0.002678,0.000431,0.002233
6114000,0.0324,0.013523,0.002678,0.000431,0.002233
6115000,0.0324,0.013523,0.002678,0.000431,0.002351
6116000,0.0324,0.013523,0.002678,0.000431,0.002468
6117000,0.0324,0.013523,0.002678,0.000431,0.002703
6118000,0.0324,0.013523,0.002678,0.000431,0.002821
6119000,0.0324,0.013523,0.002678,0.000431,0.002233
6120000,0.0324,0.013523,0.002678,0.000431,0.002821
6121000,0.0324,0.013523,0.002678,0.000431,0.002468
6122000,0.0324,0.013523,0.002678,0.000431,0.001998
6123000,0.0324,0.013523,0.002678,0.000431,0.002586
6124000,0.0324,0.013523,0.002678,0.000431,0.002821
6125000,0.0324,0.013523,0.002678,0.000431,0.003056
6126000,0.0324,0.013523,0.002678,0.000431,0.002586
6127000,0.0324,0.013523,0.002678,0.000431,0.002351
6128000,0.0324,0.013523,0.002678,0.000431,0.002586
6129000,0.0324,0.013523,0.002678,0.000431,0.002468
6130000,0.0324,0.013523,0.002678,0.000431,0.002351
6131000,0.0324,0.013523,0.002678,0.000431,0.002351
6132000,0.0324,0.013523,0.002678,0.000431,0.002703
6133000,0.0324,0.013523,0.002678,0.000431,0.002233
6134000,0.0324,0.013523,0.002678,0.000431,0.002116
6135000,0.0324,0.013523,0.002678,0.000431,0.002821
6136000,0.0324,0.013523,0.002678,0.000431,0.001998
6137000,0.0324,0.013523,0.002678,0.000431,0.002116
6138000,0.0324,0.013523,0.002678,0.000431,0.002586
6139000,0.0324,0.013523,0.002678,0.000431,0.001880
6140000,0.0324,0.013523,0.002678,0.000431,0.002586
6141000,0.0324,0.013523,0.002678,0.000431,0.002116
6142000,0.0324,0.013523,0.002678,0.000431,0.001998
6143000,0.0324,0.013523,0.002678,0.000431,0.002351
6144000,0.0324,0.013523,0.002678,0.000431,0.001880
6145000,0.0324,0.013523,0.002678,0.000431,0.002586
6146000,0.0324,0.013523,0.002678,0.000431,0.002821
6147000,0.0324,0.013523,0.002678,0.000431,0.002586
6148000,0.0324,0.013523,0.002678,0.000431,0.002351
6149000,0.0324,0.013523,0.002678,0.000431,0.002938
6150000,0.0324,0.013523,0.002678,0.000431,0.002938
6151000,0.0324,0.013523,0.002678,0.000431,0.002821
6152000,0.0324,0.013523,0.002678,0.000431,0.002351
6153000,0.0324,0.013523,0.002678,0.000431,0.002703
6154000,0.0324,0.013523,0.002678,0.000431,0.002703
6155000,0.0324,0.013523,0.002678,0.000431,0.003056
6156000,0.0324,0.013523,0.002678,0.000431,0.002703
6157000,0.0324,0.013523,0.002678,0.000431,0.002351
6158000,0.0324,0.013523,0.002678,0.000431,0.002468
6159000,0.0324,0.013523,0.002678,0.000431,0.002468
6160000,0.0324,0.013523,0.002678,0.000431,0.002586
6161000,0.0324,0.013523,0.002678,0.000431,0.002468
6162000,0.0324,0.013523,0.002678,0.000431,0.003056
6163000,0.0324,0.013523,0.002678,0.000431,0.002468
6164000,0.0324,0.013523,0.002678,0.000431,0.002116
6165000,0.0324,0.013523,0.002678,0.000431,0.002351
6166000,0.0324,0.013523,0.002678,0.000431,0.002233
6167000,0.0324,0.013523,0.002678,0.000431,0.002468
6168000,0.0324,0.013523,0.002678,0.000431,0.001763
6169000,0.0324,0.013523,0.002678,0.000431,0.001998
6170000,0.0324,0.013523,0.002678,0.000431,0.002351
6171000,0.0324,0.013523,0.002678,0.000431,0.002233
6172000,0.0324,0.013523,0.002678,0.000431,0.002703
6173000,0.0324,0.013523,0.002678,0.000431,0.002468
6174000,0.0324,0.013523,0.002678,0.000431,0.001763
6175000,0.0324,0.013523,0.002678,0.000431,0.001763
6176000,0.0324,0.013523,0.002678,0.000431,0.002468
6177000,0.0324,0.013523,0.002678,0.000431,0.002703
6178000,0.0324,0.013523,0.002678,0.000431,0.002116
6179000,0.0324,0.013523,0.002678,0.000431,0.001998
6180000,0.0324,0.013523,0.002678,0.000431,0.002116
6181000,0.0324,0.013523,0.002678,0.000431,0.002351
6182000,0.0324,0.013523,0.002678,0.000431,0.001998
6183000,0.0324,0.013523,0.002678,0.000431,0.002233
6184000,0.0324,0.013523,0.002678,0.000431,0.002351
6185000,0.0324,0.013523,0.002678,0.000431,0.002116
6186000,0.0324,0.013523,0.002678,0.000431,0.001998
6187000,0.0324,0.013523,0.002678,0.000431,0.002468
6188000,0.0324,0.013523,0.002678,0.000431,0.002116
6189000,0.0324,0.013523,0.002678,0.000431,0.002233
6190000,0.0324,0.013523,0.002678,0.000431,0.002351
6191000,0.0324,0.013523,0.002678,0.000431,0.002468
6192000,0.0324,0.013523,0.002678,0.000431,0.002586
6193000,0.0324,0.013523,0.002678,0.000431,0.001880
6194000,0.0324,0.013523,0.002678,0.000431,0.002233
6195000,0.0324,0.013523,0.002678,0.000431,0.002468
6196000,0.0324,0.013523,0.002678,0.000431,0.002233
6197000,0.0324,0.013523,0.002678,0.000431,0.002116
6198000,0.0324,0.013523,0.002678,0.000431,0.001763
6199000,0.0324,0.013523,0.002678,0.000431,0.001998
6200000,0.0324,0.013523,0.002678,0.000431,0.002351
6201000,0.0324,0.013523,0.002678,0.000431,0.002468
6202000,0.0324,0.013523,0.002678,0.000431,0.002116
6203000,0.0324,0.013523,0.002678,0.000431,0.002351
6204000,0.0324,0.013523,0.002678,0.000431,0.002233
6205000,0.0324,0.013523,0.002678,0.000431,0.002116
6206000,0.0324,0.013523,0.002678,0.000431,0.002116
6207000,0.0324,0.013523,0.002678,0.000431,0.001998
6208000,0.0324,0.013523,0.002678,0.000431,0.002468
6209000,0.0324,0.013523,0.002678,0.000431,0.002233
6210000,0.0324,0.013523,0.002678,0.000431,0.001410
6211000,0.0324,0.013523,0.002678,0.000431,0.002351
6212000,0.0324,0.013523,0.002678,0.000431,0.002351
6213000,0.0324,0.013523,0.002678,0.000431,0.001880
6214000,0.0324,0.013523,0.002678,0.000431,0.002116
6215000,0.0324,0.013523,0.002678,0.000431,0.002116
6216000,0.0324,0.013523,0.002678,0.000431,0.002586
6217000,0.0324,0.013523,0.002678,0.000431,0.002468
6218000,0.0324,0.013523,0.002678,0.000431,0.001998
6219000,0.0324,0.013523,0.002678,0.000431,0.002233
6220000,0.0324,0.013523,0.002678,0.000431,0.002233
6221000,0.0324,0.013523,0.002678,0.000431,0.002233
6222000,0.0324,0.013523,0.002678,0.000431,0.001998
6223000,0.0324,0.013523,0.002678,0.000431,0.002351
6224000,0.0324,0.013523,0.002678,0.000431,0.002586
6225000,0.0324,0.013523,0.002678,0.000431,0.002233
6226000,0.0324,0.013523,0.002678,0.000431,0.002468
6227000,0.0324,0.013523,0.002678,0.000431,0.002116
6228000,0.0324,0.013523,0.002678,0.000431,0.002233
6229000,0.0324,0.013523,0.002678,0.000431,0.002586
6230000,0.0324,0.013523,0.002678,0.000431,0.002351
6231000,0.0324,0.013523,0.002678,0.000431,0.002351
6232000,0.0324,0.013523,0.002678,0.000431,0.002116
6233000,0.0324,0.013523,0.002678,0.000431,0.002116
6234000,0.0324,0.013523,0.002678,0.000431,0.001880
6235000,0.0324,0.013523,0.002678,0.000431,0.002351
6236000,0.0324,0.013523,0.002678,0.000431,0.002468
6237000,0.0324,0.013523,0.002678,0.000431,0.002351
6238000,0.0324,0.013523,0.002678,0.000431,0.002351
6239000,0.0324,0.013523,0.002678,0.000431,0.002116
6240000,0.0324,0.013523,0.002678,0.000431,0.002468
6241000,0.0324,0.013523,0.002678,0.000431,0.002233
6242000,0.0324,0.013523,0.002678,0.000431,0.002703
6243000,0.0324,0.013523,0.002678,0.000431,0.002468
6244000,0.0324,0.013523,0.002678,0.000431,0.001880
6245000,0.0324,0.013523,0.002678,0.000431,0.002233
6246000,0.0324,0.013523,0.002678,0.000431,0.002351
6247000,0.0324,0.013523,0.002678,0.000431,0.002233
6248000,0.0324,0.013523,0.002678,0.000431,0.002468
6249000,0.0324,0.013523,0.002678,0.000431,0.002351
6250000,0.0324,0.013523,0.002678,0.000431,0.001880
6251000,0.0324,0.013523,0.002678,0.000431,0.002586
6252000,0.0324,0.013523,0.002678,0.000431,0.002468
6253000,0.0324,0.013523,0.002678,0.000431,0.002233
6254000,0.0324,0.013523,0.002678,0.000431,0.002703
6255000,0.0324,0.013523,0.002678,0.000431,0.002703
6256000,0.0324,0.013523,0.002678,0.000431,0.002233
6257000,0.0324,0.013523,0.002678,0.000431,0.002233
6258000,0.0324,0.013523,0.002678,0.000431,0.002233
6259000,0.0324,0.013523,0.002678,0.000431,0.002351
6260000,0.0324,0.013523,0.002678,0.000431,0.002351
6261000,0.0324,0.013523,0.002678,0.000431,0.002351
6262000,0.0324,0.013523,0.002678,0.000431,0.002116
6263000,0.0324,0.013523,0.002678,0.000431,0.002821
6264000,0.0324,0.013523,0.002678,0.000431,0.002116
6265000,0.0324,0.013523,0.002678,0.000431,0.002233
6266000,0.0324,0.013523,0.002678,0.000431,0.002468
6267000,0.0324,0.013523,0.002678,0.000431,0.002116
6268000,0.0324,0.013523,0.002678,0.000431,0.002116
6269000,0.0324,0.013523,0.002678,0.000431,0.002821
6270000,0.0324,0.013523,0.002678,0.000431,0.002703
6271000,0.0324,0.013523,0.002678,0.000431,0.002351
6272000,0.0324,0.013523,0.002678,0.000431,0.002233
6273000,0.0324,0.013523,0.002678,0.000431,0.002116
6274000,0.0324,0.013523,0.002678,0.000431,0.002233
6275000,0.0324,0.013523,0.002678,0.000431,0.002233
6276000,0.0324,0.013523,0.002678,0.000431,0.002116
6277000,0.0324,0.013523,0.002678,0.000431,0.002233
6278000,0.0324,0.013523,0.002678,0.000431,0.002351
6279000,0.0324,0.013523,0.002678,0.000431,0.002351
6280000,0.0324,0.013523,0.002678,0.000431,0.002351
6281000,0.0324,0.013523,0.002678,0.000431,0.002233
6282000,0.0324,0.013523,0.002678,0.000431,0.002233
6283000,0.0324,0.013523,0.002678,0.000431,0.002468
6284000,0.0324,0.013523,0.002678,0.000431,0.002116
6285000,0.0324,0.013523,0.002678,0.000431,0.002468
6286000,0.0324,0.013523,0.002678,0.000431,0.002468
6287000,0.0324,0.013523,0.002678,0.000431,0.002116
6288000,0.0324,0.013523,0.002678,0.000431,0.002351
6289000,0.0324,0.013523,0.002678,0.000431,0.002116
6290000,0.0324,0.013523,0.002678,0.000431,0.002703
6291000,0.0324,0.013523,0.002678,0.000431,0.002468
6292000,0.0324,0.013523,0.002678,0.000431,0.002468
6293000,0.0324,0.013523,0.002678,0.000431,0.002703
6294000,0.0324,0.013523,0.002678,0.000431,0.002468
6295000,0.0324,0.013523,0.002678,0.000431,0.002703
6296000,0.0324,0.013523,0.002678,0.000431,0.001998
6297000,0.0324,0.013523,0.002678,0.000431,0.002351
6298000,0.0324,0.013523,0.002678,0.000431,0.001763
6299000,0.0324,0.013523,0.002678,0.000431,0.002468
6300000,0.0324,0.013523,0.002678,0.000431,0.002586
6301000,0.0324,0.013523,0.002678,0.000431,0.001998
6302000,0.0324,0.013523,0.002678,0.000431,0.001880
6303000,0.0324,0.013523,0.002678,0.000431,0.002703
6304000,0.0324,0.013523,0.002678,0.000431,0.002233
6305000,0.0324,0.013523,0.002678,0.000431,0.002468
6306000,0.0324,0.013523,0.002678,0.000431,0.002233
6307000,0.0324,0.013523,0.002678,0.000431,0.002116
6308000,0.0324,0.013523,0.002678,0.000431,0.001998
6309000,0.0324,0.013523,0.002678,0.000431,0.002586
6310000,0.0324,0.013523,0.002678,0.000431,0.002351
6311000,0.0324,0.013523,0.002678,0.000431,0.001880
6312000,0.0324,0.013523,0.002678,0.000431,0.002116
6313000,0.0324,0.013523,0.002678,0.000431,0.002703
6314000,0.0324,0.013523,0.002678,0.000431,0.001998
6315000,0.0324,0.013523,0.002678,0.000431,0.002468
6316000,0.0324,0.013523,0.002678,0.000431,0.002468
6317000,0.0324,0.013523,0.002678,0.000431,0.001763
6318000,0.0324,0.013523,0.002678,0.000431,0.002703
6319000,0.0324,0.013523,0.002678,0.000431,0.002468
6320000,0.0324,0.013523,0.002678,0.000431,0.002351
6321000,0.0324,0.013523,0.002678,0.000431,0.002233
6322000,0.0324,0.013523,0.002678,0.000431,0.002116
6323000,0.0324,0.013523,0.002678,0.000431,0.001998
6324000,0.0324,0.013523,0.002678,0.000431,0.002351
6325000,0.0324,0.013523,0.002678,0.000431,0.002703
6326000,0.0324,0.013523,0.002678,0.000431,0.001763
6327000,0.0324,0.013523,0.002678,0.000431,0.001998
6328000,0.0324,0.013523,0.002678,0.000431,0.002703
6329000,0.0324,0.013523,0.002678,0.000431,0.001998
6330000,0.0324,0.013523,0.002678,0.000431,0.001998
6331000,0.0324,0.013523,0.002678,0.000431,0.002703
6332000,0.0324,0.013523,0.002678,0.000431,0.002116
6333000,0.0324,0.013523,0.002678,0.000431,0.002586
6334000,0.0324,0.013523,0.002678,0.000431,0.001998
6335000,0.0324,0.013523,0.002678,0.000431,0.002351
6336000,0.0324,0.013523,0.002678,0.000431,0.002351
6337000,0.0324,0.013523,0.002678,0.000431,0.002351
6338000,0.0324,0.013523,0.002678,0.000431,0.001528
6339000,0.0324,0.013523,0.002678,0.000431,0.002351
6340000,0.0324,0.013523,0.002678,0.000431,0.002703
6341000,0.0324,0.013523,0.002678,0.000431,0.001998
6342000,0.0324,0.013523,0.002678,0.000431,0.002351
6343000,0.0324,0.013523,0.002678,0.000431,0.001880
6344000,0.0324,0.013523,0.002678,0.000431,0.002586
6345000,0.0324,0.013523,0.002678,0.000431,0.001998
6346000,0.0324,0.013523,0.002678,0.000431,0.002351
6347000,0.0324,0.013523,0.002678,0.000431,0.001763
6348000,0.0324,0.013523,0.002678,0.000431,0.001998
6349000,0.0324,0.013523,0.002678,0.000431,0.002233
6350000,0.0324,0.013523,0.002678,0.000431,0.001998
6351000,0.0324,0.013523,0.002678,0.000431,0.002233
6352000,0.0324,0.013523,0.002678,0.000431,0.001998
6353000,0.0324,0.013523,0.002678,0.000431,0.001998
6354000,0.0324,0.013523,0.002678,0.000431,0.002116
6355000,0.0324,0.013523,0.002678,0.000431,0.001998
6356000,0.0324,0.013523,0.002678,0.000431,0.002351
6357000,0.0324,0.013523,0.002678,0.000431,0.002468
6358000,0.0324,0.013523,0.002678,0.000431,0.002233
6359000,0.0324,0.013523,0.002678,0.000431,0.002586
6360000,0.0324,0.013523,0.002678,0.000431,0.002703
6361000,0.0324,0.013523,0.002678,0.000431,0.002116
6362000,0.0324,0.013523,0.002678,0.000431,0.002468
6363000,0.0324,0.013523,0.002678,0.000431,0.002233
6364000,0.0324,0.013523,0.002678,0.000431,0.001998
6365000,0.0324,0.013523,0.002678,0.000431,0.002351
6366000,0.0324,0.013523,0.002678,0.000431,0.002116
6367000,0.0324,0.013523,0.002678,0.000431,0.002468
6368000,0.0324,0.013523,0.002678,0.000431,0.002233
6369000,0.0324,0.013523,0.002678,0.000431,0.001998
6370000,0.0324,0.013523,0.002678,0.000431,0.002233
6371000,0.0324,0.013523,0.002678,0.000431,0.002703
6372000,0.0324,0.013523,0.002678,0.000431,0.002351
6373000,0.0324,0.013523,0.002678,0.000431,0.002351
6374000,0.0324,0.013523,0.002678,0.000431,0.002116
6375000,0.0324,0.013523,0.002678,0.000431,0.002233
6376000,0.0324,0.013523,0.002678,0.000431,0.002233
6377000,0.0324,0.013523,0.002678,0.000431,0.002468
6378000,0.0324,0.013523,0.002678,0.000431,0.001880
6379000,0.0324,0.013523,0.002678,0.000431,0.001880
6380000,0.0324,0.013523,0.002678,0.000431,0.002351
6381000,0.0324,0.013523,0.002678,0.000431,0.002233
6382000,0.0324,0.013523,0.002678,0.000431,0.002703
6383000,0.0324,0.013523,0.002678,0.000431,0.002351
6384000,0.0324,0.013523,0.002678,0.000431,0.002116
6385000,0.0324,0.013523,0.002678,0.000431,0.002586
6386000,0.0324,0.013523,0.002678,0.000431,0.002703
6387000,0.0324,0.013523,0.002678,0.000431,0.001998
6388000,0.0324,0.013523,0.002678,0.000431,0.002468
6389000,0.0324,0.013523,0.002678,0.000431,0.001998
6390000,0.0324,0.013523,0.002678,0.000431,0.002351
6391000,0.0324,0.013523,0.002678,0.000431,0.002116
6392000,0.0324,0.013523,0.002678,0.000431,0.001763
6393000,0.0324,0.013523,0.002678,0.000431,0.001763
6394000,0.0324,0.013523,0.002678,0.000431,0.002351
6395000,0.0324,0.013523,0.002678,0.000431,0.001880
6396000,0.0324,0.013523,0.002678,0.000431,0.002116
6397000,0.0324,0.013523,0.002678,0.000431,0.002116
6398000,0.0324,0.013523,0.002678,0.000431,0.002116
6399000,0.0324,0.013523,0.002678,0.000431,0.002586
6400000,0.0324,0.013523,0.002678,0.000431,0.002586
6401000,0.0324,0.013523,0.002678,0.000431,0.002586
6402000,0.0324,0.013523,0.002678,0.000431,0.002116
6403000,0.0324,0.013523,0.002678,0.000431,0.002468
6404000,0.0324,0.013523,0.002678,0.000431,0.002116
6405000,0.0324,0.013523,0.002678,0.000431,0.002116
6406000,0.0324,0.013523,0.002678,0.000431,0.001998
6407000,0.0324,0.013523,0.002678,0.000431,0.002233
6408000,0.0324,0.013523,0.002678,0.000431,0.001880
6409000,0.0324,0.013523,0.002678,0.000431,0.002703
6410000,0.0324,0.013523,0.002678,0.000431,0.001880
6411000,0.0324,0.013523,0.002678,0.000431,0.002351
6412000,0.0324,0.013523,0.002678,0.000431,0.002116
6413000,0.0324,0.013523,0.002678,0.000431,0.002351
6414000,0.0324,0.013523,0.002678,0.000431,0.002351
6415000,0.0324,0.013523,0.002678,0.000431,0.002233
6416000,0.0324,0.013523,0.002678,0.000431,0.001880
6417000,0.0324,0.013523,0.002678,0.000431,0.002351
6418000,0.0324,0.013523,0.002678,0.000431,0.002468
6419000,0.0324,0.013523,0.002678,0.000431,0.002116
6420000,0.0324,0.013523,0.002678,0.000431,0.002468
6421000,0.0324,0.013523,0.002678,0.000431,0.002233
6422000,0.0324,0.013523,0.002678,0.000431,0.002116
6423000,0.0324,0.013523,0.002678,0.000431,0.002233
6424000,0.0324,0.013523,0.002678,0.000431,0.002468
6425000,0.0324,0.013523,0.002678,0.000431,0.001998
6426000,0.0324,0.013523,0.002678,0.000431,0.002233
6427000,0.0324,0.013523,0.002678,0.000431,0.002351
6428000,0.0324,0.013523,0.002678,0.000431,0.002116
6429000,0.0324,0.013523,0.002678,0.000431,0.002351
6430000,0.0324,0.013523,0.002678,0.000431,0.002116
6431000,0.0324,0.013523,0.002678,0.000431,0.002233
6432000,0.0324,0.013523,0.002678,0.000431,0.002351
6433000,0.0324,0.013523,0.002678,0.000431,0.002351
6434000,0.0324,0.013523,0.002678,0.000431,0.002233
6435000,0.0324,0.013523,0.002678,0.000431,0.002468
6436000,0.0324,0.013523,0.002678,0.000431,0.002233
6437000,0.0324,0.013523,0.002678,0.000431,0.002116
6438000,0.0324,0.013523,0.002678,0.000431,0.002233
6439000,0.0324,0.013523,0.002678,0.000431,0.002468
6440000,0.0324,0.013523,0.002678,0.000431,0.001880
6441000,0.0324,0.013523,0.002678,0.000431,0.002351
6442000,0.0324,0.013523,0.002678,0.000431,0.002116
6443000,0.0324,0.013523,0.002678,0.000431,0.001880
6444000,0.0324,0.013523,0.002678,0.000431,0.001998
6445000,0.0324,0.013523,0.002678,0.000431,0.001998
6446000,0.0324,0.013523,0.002678,0.000431,0.002233
6447000,0.0324,0.013523,0.002678,0.000431,0.002468
6448000,0.0324,0.013523,0.002678,0.000431,0.002468
6449000,0.0324,0.013523,0.002678,0.000431,0.002233
6450000,0.0324,0.013523,0.002678,0.000431,0.002468
6451000,0.0324,0.013523,0.002678,0.000431,0.002351
6452000,0.0324,0.013523,0.002678,0.000431,0.002233
6453000,0.0324,0.013523,0.002678,0.000431,0.002116
6454000,0.0324,0.013523,0.002678,0.000431,0.002351
6455000,0.0324,0.013523,0.002678,0.000431,0.002586
6456000,0.0324,0.013523,0.002678,0.000431,0.002351
6457000,0.0324,0.013523,0.002678,0.000431,0.002233
6458000,0.0324,0.013523,0.002678,0.000431,0.002586
6459000,0.0324,0.013523,0.002678,0.000431,0.001998
6460000,0.0324,0.013523,0.002678,0.000431,0.001528
6461000,0.0324,0.013523,0.002678,0.000431,0.002351
6462000,0.0324,0.013523,0.002678,0.000431,0.002351
6463000,0.0324,0.013523,0.002678,0.000431,0.002586
6464000,0.0324,0.013523,0.002678,0.000431,0.002351
6465000,0.0324,0.013523,0.002678,0.000431,0.002703
6466000,0.0324,0.013523,0.002678,0.000431,0.002468
6467000,0.0324,0.013523,0.002678,0.000431,0.002586
6468000,0.0324,0.013523,0.002678,0.000431,0.002233
6469000,0.0324,0.013523,0.002678,0.000431,0.001880
6470000,0.0324,0.013523,0.002678,0.000431,0.002351
6471000,0.0324,0.013523,0.002678,0.000431,0.002351
6472000,0.0324,0.013523,0.002678,0.000431,0.001880
6473000,0.0324,0.013523,0.002678,0.000431,0.002468
6474000,0.0324,0.013523,0.002678,0.000431,0.002351
6475000,0.0324,0.013523,0.002678,0.000431,0.002468
6476000,0.0324,0.013523,0.002678,0.000431,0.001763
6477000,0.0324,0.013523,0.002678,0.000431,0.002468
6478000,0.0324,0.013523,0.002678,0.000431,0.001880
6479000,0.0324,0.013523,0.002678,0.000431,0.002351
6480000,0.0324,0.013523,0.002678,0.000431,0.002468
6481000,0.0324,0.013523,0.002678,0.000431,0.002703
6482000,0.0324,0.013523,0.002678,0.000431,0.002468
6483000,0.0324,0.013523,0.002678,0.000431,0.002468
6484000,0.0324,0.013523,0.002678,0.000431,0.002586
6485000,0.0324,0.013523,0.002678,0.000431,0.002468
6486000,0.0324,0.013523,0.002678,0.000431,0.002468
6487000,0.0324,0.013523,0.002678,0.000431,0.002233
6488000,0.0324,0.013523,0.002678,0.000431,0.002468
6489000,0.0324,0.013523,0.002678,0.000431,0.002351
6490000,0.0324,0.013523,0.002678,0.000431,0.002351
6491000,0.0324,0.013523,0.002678,0.000431,0.001880
6492000,0.0324,0.013523,0.002678,0.000431,0.002116
6493000,0.0324,0.013523,0.002678,0.000431,0.002116
6494000,0.0324,0.013523,0.002678,0.000431,0.002703
6495000,0.0324,0.013523,0.002678,0.000431,0.002586
6496000,0.0324,0.013523,0.002678,0.000431,0.002116
6497000,0.0324,0.013523,0.002678,0.000431,0.001998
6498000,0.0324,0.013523,0.002678,0.000431,0.002586
6499000,0.0324,0.013523,0.002678,0.000431,0.002116
6500000,0.0324,0.013523,0.002678,0.000431,0.002116
6501000,0.0324,0.013523,0.002678,0.000431,0.002351
6502000,0.0324,0.013523,0.002678,0.000431,0.001880
6503000,0.0324,0.013523,0.002678,0.000431,0.002703
6504000,0.0324,0.013523,0.002678,0.000431,0.002468
6505000,0.0324,0.013523,0.002678,0.000431,0.002116
6506000,0.0324,0.013523,0.002678,0.000431,0.001998
6507000,0.0324,0.013523,0.002678,0.000431,0.002351
6508000,0.0324,0.013523,0.002678,0.000431,0.002821
6509000,0.0324,0.013523,0.002678,0.000431,0.002351
6510000,0.0324,0.013523,0.002678,0.000431,0.002116
6511000,0.0324,0.013523,0.002678,0.000431,0.002233
6512000,0.0324,0.013523,0.002678,0.000431,0.002233
6513000,0.0324,0.013523,0.002678,0.000431,0.002116
6514000,0.0324,0.013523,0.002678,0.000431,0.001880
6515000,0.0324,0.013523,0.002678,0.000431,0.002586
6516000,0.0324,0.013523,0.002678,0.000431,0.002116
6517000,0.0324,0.013523,0.002678,0.000431,0.002351
6518000,0.0324,0.013523,0.002678,0.000431,0.002116
6519000,0.0324,0.013523,0.002678,0.000431,0.001998
6520000,0.0324,0.013523,0.002678,0.000431,0.001645
6521000,0.0324,0.013523,0.002678,0.000431,0.002233
6522000,0.0324,0.013523,0.002678,0.000431,0.002233
6523000,0.0324,0.013523,0.002678,0.000431,0.002468
6524000,0.0324,0.013523,0.002678,0.000431,0.001998
6525000,0.0324,0.013523,0.002678,0.000431,0.002351
6526000,0.0324,0.013523,0.002678,0.000431,0.001880
6527000,0.0324,0.013523,0.002678,0.000431,0.002586
6528000,0.0324,0.013523,0.002678,0.000431,0.002233
6529000,0.0324,0.013523,0.002678,0.000431,0.002116
6530000,0.0324,0.013523,0.002678,0.000431,0.002468
6531000,0.0324,0.013523,0.002678,0.000431,0.002233
6532000,0.0324,0.013523,0.002678,0.000431,0.001763
6533000,0.0324,0.013523,0.002678,0.000431,0.002351
6534000,0.0324,0.013523,0.002678,0.000431,0.002351
6535000,0.0324,0.013523,0.002678,0.000431,0.002468
6536000,0.0324,0.013523,0.002678,0.000431,0.002703
6537000,0.0324,0.013523,0.002678,0.000431,0.001880
6538000,0.0324,0.013523,0.002678,0.000431,0.002116
6539000,0.0324,0.013523,0.002678,0.000431,0.002351
6540000,0.0324,0.013523,0.002678,0.000431,0.002233
6541000,0.0324,0.013523,0.002678,0.000431,0.001763
6542000,0.0324,0.013523,0.002678,0.000431,0.002821
6543000,0.0324,0.013523,0.002678,0.000431,0.002233
6544000,0.0324,0.013523,0.002678,0.000431,0.002233
6545000,0.0324,0.013523,0.002678,0.000431,0.002586
6546000,0.0324,0.013523,0.002678,0.000431,0.001880
6547000,0.0324,0.013523,0.002678,0.000431,0.001645
6548000,0.0324,0.013523,0.002678,0.000431,0.002233
6549000,0.0324,0.013523,0.002678,0.000431,0.002116
6550000,0.0324,0.013523,0.002678,0.000431,0.002233
6551000,0.0324,0.013523,0.002678,0.000431,0.002351
6552000,0.0324,0.013523,0.002678,0.000431,0.002468
6553000,0.0324,0.013523,0.002678,0.000431,0.002351
6554000,0.0324,0.013523,0.002678,0.000431,0.001998
6555000,0.0324,0.013523,0.002678,0.000431,0.001998
6556000,0.0324,0.013523,0.002678,0.000431,0.002233
6557000,0.0324,0.013523,0.002678,0.000431,0.002351
6558000,0.0324,0.013523,0.002678,0.000431,0.002233
6559000,0.0324,0.013523,0.002678,0.000431,0.002351
6560000,0.0324,0.013523,0.002678,0.000431,0.002351
6561000,0.0324,0.013523,0.002678,0.000431,0.001763
6562000,0.0324,0.013523,0.002678,0.000431,0.002468
6563000,0.0324,0.013523,0.002678,0.000431,0.001763
6564000,0.0324,0.013523,0.002678,0.000431,0.001880
6565000,0.0324,0.013523,0.002678,0.000431,0.001998
6566000,0.0324,0.013523,0.002678,0.000431,0.002351
6567000,0.0324,0.013523,0.002678,0.000431,0.001998
6568000,0.0324,0.013523,0.002678,0.000431,0.002351
6569000,0.0324,0.013523,0.002678,0.000431,0.002468
6570000,0.0324,0.013523,0.002678,0.000431,0.001998
6571000,0.0324,0.013523,0.002678,0.000431,0.002116
6572000,0.0324,0.013523,0.002678,0.000431,0.001880
6573000,0.0324,0.013523,0.002678,0.000431,0.002821
6574000,0.0324,0.013523,0.002678,0.000431,0.002586
6575000,0.0324,0.013523,0.002678,0.000431,0.001998
6576000,0.0324,0.013523,0.002678,0.000431,0.002468
6577000,0.0324,0.013523,0.002678,0.000431,0.001763
6578000,0.0324,0.013523,0.002678,0.000431,0.002116
6579000,0.0324,0.013523,0.002678,0.000431,0.002586
6580000,0.0324,0.013523,0.002678,0.000431,0.002586
6581000,0.0324,0.013523,0.002678,0.000431,0.002468
6582000,0.0324,0.013523,0.002678,0.000431,0.002586
6583000,0.0324,0.013523,0.002678,0.000431,0.002938
6584000,0.0324,0.013523,0.002678,0.000431,0.001998
6585000,0.0324,0.013523,0.002678,0.000431,0.001998
6586000,0.0324,0.013523,0.002678,0.000431,0.002116
6587000,0.0324,0.013523,0.002678,0.000431,0.002351
6588000,0.0324,0.013523,0.002678,0.000431,0.002116
6589000,0.0324,0.013523,0.002678,0.000431,0.001880
6590000,0.0324,0.013523,0.002678,0.000431,0.002116
6591000,0.0324,0.013523,0.002678,0.000431,0.001763
6592000,0.0324,0.013523,0.002678,0.000431,0.001880
6593000,0.0324,0.013523,0.002678,0.000431,0.001998
6594000,0.0324,0.013523,0.002678,0.000431,0.002586
6595000,0.0324,0.013523,0.002678,0.000431,0.002586
6596000,0.0324,0.013523,0.002678,0.000431,0.002351
6597000,0.0324,0.013523,0.002678,0.000431,0.002351
6598000,0.0324,0.013523,0.002678,0.000431,0.002233
6599000,0.0324,0.013523,0.002678,0.000431,0.002116
6600000,0.0324,0.013523,0.002678,0.000431,0.002351
6601000,0.0324,0.013523,0.002678,0.000431,0.002116
6602000,0.0324,0.013523,0.002678,0.000431,0.001998
6603000,0.0324,0.013523,0.002678,0.000431,0.002586
6604000,0.0324,0.013523,0.002678,0.000431,0.002703
6605000,0.0324,0.013523,0.002678,0.000431,0.002351
6606000,0.0324,0.013523,0.002678,0.000431,0.002233
6607000,0.0324,0.013523,0.002678,0.000431,0.001880
6608000,0.0324,0.013523,0.002678,0.000431,0.001998
6609000,0.0324,0.013523,0.002678,0.000431,0.002116
6610000,0.0324,0.013523,0.002678,0.000431,0.002116
6611000,0.0324,0.013523,0.002678,0.000431,0.002116
6612000,0.0324,0.013523,0.002678,0.000431,0.002116
6613000,0.0324,0.013523,0.002678,0.000431,0.002351
6614000,0.0324,0.013523,0.002678,0.000431,0.001998
6615000,0.0324,0.013523,0.002678,0.000431,0.002116
6616000,0.0324,0.013523,0.002678,0.000431,0.002703
6617000,0.0324,0.013523,0.002678,0.000431,0.002586
6618000,0.0324,0.013523,0.002678,0.000431,0.002468
6619000,0.0324,0.013523,0.002678,0.000431,0.002233
6620000,0.0324,0.013523,0.002678,0.000431,0.002233
6621000,0.0324,0.013523,0.002678,0.000431,0.002586
6622000,0.0324,0.013523,0.002678,0.000431,0.002116
6623000,0.0324,0.013523,0.002678,0.000431,0.002233
6624000,0.0324,0.013523,0.002678,0.000431,0.002116
6625000,0.0324,0.013523,0.002678,0.000431,0.001998
6626000,0.0324,0.013523,0.002678,0.000431,0.002116
6627000,0.0324,0.013523,0.002678,0.000431,0.002116
6628000,0.0324,0.013523,0.002678,0.000431,0.002116
6629000,0.0324,0.013523,0.002678,0.000431,0.001998
6630000,0.0324,0.013523,0.002678,0.000431,0.002821
6631000,0.0324,0.013523,0.002678,0.000431,0.001763
6632000,0.0324,0.013523,0.002678,0.000431,0.001763
6633000,0.0324,0.013523,0.002678,0.000431,0.001880
6634000,0.0324,0.013523,0.002678,0.000431,0.002116
6635000,0.0324,0.013523,0.002678,0.000431,0.002233
6636000,0.0324,0.013523,0.002678,0.000431,0.002468
6637000,0.0324,0.013523,0.002678,0.000431,0.002351
6638000,0.0324,0.013523,0.002678,0.000431,0.001763
6639000,0.0324,0.013523,0.002678,0.000431,0.002468
6640000,0.0324,0.013523,0.002678,0.000431,0.002351
6641000,0.0324,0.013523,0.002678,0.000431,0.002116
6642000,0.0324,0.013523,0.002678,0.000431,0.002351
6643000,0.0324,0.013523,0.002678,0.000431,0.002468
6644000,0.0324,0.013523,0.002678,0.000431,0.002233
6645000,0.0324,0.013523,0.002678,0.000431,0.002468
6646000,0.0324,0.013523,0.002678,0.000431,0.002116
6647000,0.0324,0.013523,0.002678,0.000431,0.002586
6648000,0.0324,0.013523,0.002678,0.000431,0.002468
6649000,0.0324,0.013523,0.002678,0.000431,0.001998
6650000,0.0324,0.013523,0.002678,0.000431,0.002116
6651000,0.0324,0.013523,0.002678,0.000431,0.002586
6652000,0.0324,0.013523,0.002678,0.000431,0.002116
6653000,0.0324,0.013523,0.002678,0.000431,0.002351
6654000,0.0324,0.013523,0.002678,0.000431,0.002233
6655000,0.0324,0.013523,0.002678,0.000431,0.002233
6656000,0.0324,0.013523,0.002678,0.000431,0.002351
6657000,0.0324,0.013523,0.002678,0.000431,0.002116
6658000,0.0324,0.013523,0.002678,0.000431,0.002233
6659000,0.0324,0.013523,0.002678,0.000431,0.002703
6660000,0.0324,0.013523,0.002678,0.000431,0.002703
6661000,0.0324,0.013523,0.002678,0.000431,0.002351
6662000,0.0324,0.013523,0.002678,0.000431,0.002233
6663000,0.0324,0.013523,0.002678,0.000431,0.002233
6664000,0.0324,0.013523,0.002678,0.000431,0.002351
6665000,0.0324,0.013523,0.002678,0.000431,0.002468
6666000,0.0324,0.013523,0.002678,0.000431,0.002468
6667000,0.0324,0.013523,0.002678,0.000431,0.002468
6668000,0.0324,0.013523,0.002678,0.000431,0.002233
6669000,0.0324,0.013523,0.002678,0.000431,0.002468
6670000,0.0324,0.013523,0.002678,0.000431,0.002351
6671000,0.0324,0.013523,0.002678,0.000431,0.002351
6672000,0.0324,0.013523,0.002678,0.000431,0.002703
6673000,0.0324,0.013523,0.002678,0.000431,0.002116
6674000,0.0324,0.013523,0.002678,0.000431,0.002116
6675000,0.0324,0.013523,0.002678,0.000431,0.002116
6676000,0.0324,0.013523,0.002678,0.000431,0.002468
6677000,0.0324,0.013523,0.002678,0.000431,0.002586
6678000,0.0324,0.013523,0.002678,0.000431,0.001998
6679000,0.0324,0.013523,0.002678,0.000431,0.001998
6680000,0.0324,0.013523,0.002678,0.000431,0.002703
6681000,0.0324,0.013523,0.002678,0.000431,0.002351
6682000,0.0324,0.013523,0.002678,0.000431,0.001998
6683000,0.0324,0.013523,0.002678,0.000431,0.001998
6684000,0.0324,0.013523,0.002678,0.000431,0.002351
6685000,0.0324,0.013523,0.002678,0.000431,0.002233
6686000,0.0324,0.013523,0.002678,0.000431,0.002351
6687000,0.0324,0.013523,0.002678,0.000431,0.002116
6688000,0.0324,0.013523,0.002678,0.000431,0.002468
6689000,0.0324,0.013523,0.002678,0.000431,0.002116
6690000,0.0324,0.013523,0.002678,0.000431,0.001880
6691000,0.0324,0.013523,0.002678,0.000431,0.002703
6692000,0.0324,0.013523,0.002678,0.000431,0.002586
6693000,0.0324,0.013523,0.002678,0.000431,0.002233
6694000,0.0324,0.013523,0.002678,0.000431,0.002233
6695000,0.0324,0.013523,0.002678,0.000431,0.001998
6696000,0.0324,0.013523,0.002678,0.000431,0.002468
6697000,0.0324,0.013523,0.002678,0.000431,0.002586
6698000,0.0324,0.013523,0.002678,0.000431,0.002468
6699000,0.0324,0.013523,0.002678,0.000431,0.002233
6700000,0.0324,0.013523,0.002678,0.000431,0.002233
6701000,0.0324,0.013523,0.002678,0.000431,0.002351
6702000,0.0324,0.013523,0.002678,0.000431,0.002116
6703000,0.0324,0.013523,0.002678,0.000431,0.002233
6704000,0.0324,0.013523,0.002678,0.000431,0.002351
6705000,0.0324,0.013523,0.002678,0.000431,0.002116
6706000,0.0324,0.013523,0.002678,0.000431,0.002586
6707000,0.0324,0.013523,0.002678,0.000431,0.001880
6708000,0.0324,0.013523,0.002678,0.000431,0.001998
6709000,0.0324,0.013523,0.002678,0.000431,0.002233
6710000,0.0324,0.013523,0.002678,0.000431,0.001998
6711000,0.0324,0.013523,0.002678,0.000431,0.002351
6712000,0.0324,0.013523,0.002678,0.000431,0.002233
6713000,0.0324,0.013523,0.002678,0.000431,0.002116
6714000,0.0324,0.013523,0.002678,0.000431,0.002468
6715000,0.0324,0.013523,0.002678,0.000431,0.002586
6716000,0.0324,0.013523,0.002678,0.000431,0.002116
6717000,0.0324,0.013523,0.002678,0.000431,0.001998
6718000,0.0324,0.013523,0.002678,0.000431,0.002116
6719000,0.0324,0.013523,0.002678,0.000431,0.002351
6720000,0.0324,0.013523,0.002678,0.000431,0.002703
6721000,0.0324,0.013523,0.002678,0.000431,0.001998
6722000,0.0324,0.013523,0.002678,0.000431,0.002116
6723000,0.0324,0.013523,0.002678,0.000431,0.001998
6724000,0.0324,0.013523,0.002678,0.000431,0.002233
6725000,0.0324,0.013523,0.002678,0.000431,0.002468
6726000,0.0324,0.013523,0.002678,0.000431,0.002586
6727000,0.0324,0.013523,0.002678,0.000431,0.002586
6728000,0.0324,0.013523,0.002678,0.000431,0.001880
6729000,0.0324,0.013523,0.002678,0.000431,0.002233
6730000,0.0324,0.013523,0.002678,0.000431,0.002703
6731000,0.0324,0.013523,0.002678,0.000431,0.002233
6732000,0.0324,0.013523,0.002678,0.000431,0.002586
6733000,0.0324,0.013523,0.002678,0.000431,0.002468
6734000,0.0324,0.013523,0.002678,0.000431,0.002233
6735000,0.0324,0.013523,0.002678,0.000431,0.002233
6736000,0.0324,0.013523,0.002678,0.000431,0.001880
6737000,0.0324,0.013523,0.002678,0.000431,0.002586
6738000,0.0324,0.013523,0.002678,0.000431,0.002586
6739000,0.0324,0.013523,0.002678,0.000431,0.002116
6740000,0.0324,0.013523,0.002678,0.000431,0.002233
6741000,0.0324,0.013523,0.002678,0.000431,0.002586
6742000,0.0324,0.013523,0.002678,0.000431,0.002233
6743000,0.0324,0.013523,0.002678,0.000431,0.002351
6744000,0.0324,0.013523,0.002678,0.000431,0.002116
6745000,0.0324,0.013523,0.002678,0.000431,0.002351
6746000,0.0324,0.013523,0.002678,0.000431,0.002351
6747000,0.0324,0.013523,0.002678,0.000431,0.002233
6748000,0.0324,0.013523,0.002678,0.000431,0.002351
6749000,0.0324,0.013523,0.002678,0.000431,0.002468
6750000,0.0324,0.013523,0.002678,0.000431,0.002821
6751000,0.0324,0.013523,0.002678,0.000431,0.002703
6752000,0.0324,0.013523,0.002678,0.000431,0.002468
6753000,0.0324,0.013523,0.002678,0.000431,0.002586
6754000,0.0324,0.013523,0.002678,0.000431,0.001645
6755000,0.0324,0.013523,0.002678,0.000431,0.002351
6756000,0.0324,0.013523,0.002678,0.000431,0.002468
6757000,0.0324,0.013523,0.002678,0.000431,0.002703
6758000,0.0324,0.013523,0.002678,0.000431,0.002233
6759000,0.0324,0.013523,0.002678,0.000431,0.002233
6760000,0.0324,0.013523,0.002678,0.000431,0.002586
6761000,0.0324,0.013523,0.002678,0.000431,0.002821
6762000,0.0324,0.013523,0.002678,0.000431,0.002351
6763000,0.0324,0.013523,0.002678,0.000431,0.002351
6764000,0.0324,0.013523,0.002678,0.000431,0.002703
6765000,0.0324,0.013523,0.002678,0.000431,0.002468
6766000,0.0324,0.013523,0.002678,0.000431,0.002586
6767000,0.0324,0.013523,0.002678,0.000431,0.002468
6768000,0.0324,0.013523,0.002678,0.000431,0.002351
6769000,0.0324,0.013523,0.002678,0.000431,0.002233
6770000,0.0324,0.013523,0.002678,0.000431,0.002468
6771000,0.0324,0.013523,0.002678,0.000431,0.002468
6772000,0.0324,0.013523,0.002678,0.000431,0.002468
6773000,0.0324,0.013523,0.002678,0.000431,0.002468
6774000,0.0324,0.013523,0.002678,0.000431,0.002586
6775000,0.0324,0.013523,0.002678,0.000431,0.002116
6776000,0.0324,0.013523,0.002678,0.000431,0.001763
6777000,0.0324,0.013523,0.002678,0.000431,0.002233
6778000,0.0324,0.013523,0.002678,0.000431,0.002468
6779000,0.0324,0.013523,0.002678,0.000431,0.002116
6780000,0.0324,0.013523,0.002678,0.000431,0.002586
6781000,0.0324,0.013523,0.002678,0.000431,0.001880
6782000,0.0324,0.013523,0.002678,0.000431,0.002116
6783000,0.0324,0.013523,0.002678,0.000431,0.002233
6784000,0.0324,0.013523,0.002678,0.000431,0.001998
6785000,0.0324,0.013523,0.002678,0.000431,0.002233
6786000,0.0324,0.013523,0.002678,0.000431,0.002233
6787000,0.0324,0.013523,0.002678,0.000431,0.002233
6788000,0.0324,0.013523,0.002678,0.000431,0.002233
6789000,0.0324,0.013523,0.002678,0.000431,0.001998
6790000,0.0324,0.013523,0.002678,0.000431,0.002468
6791000,0.0324,0.013523,0.002678,0.000431,0.002233
6792000,0.0324,0.013523,0.002678,0.000431,0.002468
6793000,0.0324,0.013523,0.002678,0.000431,0.002233
6794000,0.0324,0.013523,0.002678,0.000431,0.002586
6795000,0.0324,0.013523,0.002678,0.000431,0.002233
6796000,0.0324,0.013523,0.002678,0.000431,0.002468
6797000,0.0324,0.013523,0.002678,0.000431,0.002116
6798000,0.0324,0.013523,0.002678,0.000431,0.002586
6799000,0.0324,0.013523,0.002678,0.000431,0.002233
6800000,0.0324,0.013523,0.002678,0.000431,0.001763
6801000,0.0324,0.013523,0.002678,0.000431,0.002233
6802000,0.0324,0.013523,0.002678,0.000431,0.002233
6803000,0.0324,0.013523,0.002678,0.000431,0.002586
6804000,0.0324,0.013523,0.002678,0.000431,0.002351
6805000,0.0324,0.013523,0.002678,0.000431,0.002351
6806000,0.0324,0.013523,0.002678,0.000431,0.002233
6807000,0.0324,0.013523,0.002678,0.000431,0.002468
6808000,0.0324,0.013523,0.002678,0.000431,0.002468
6809000,0.0324,0.013523,0.002678,0.000431,0.002821
6810000,0.0324,0.013523,0.002678,0.000431,0.002233
6811000,0.0324,0.013523,0.002678,0.000431,0.002468
6812000,0.0324,0.013523,0.002678,0.000431,0.001998
6813000,0.0324,0.013523,0.002678,0.000431,0.002821
6814000,0.0324,0.013523,0.002678,0.000431,0.002586
6815000,0.0324,0.013523,0.002678,0.000431,0.002821
6816000,0.0324,0.013523,0.002678,0.000431,0.002586
6817000,0.0324,0.013523,0.002678,0.000431,0.002351
6818000,0.0324,0.013523,0.002678,0.000431,0.002586
6819000,0.0324,0.013523,0.002678,0.000431,0.002468
6820000,0.0324,0.013523,0.002678,0.000431,0.002116
6821000,0.0324,0.013523,0.002678,0.000431,0.001880
6822000,0.0324,0.013523,0.002678,0.000431,0.002351
6823000,0.0324,0.013523,0.002678,0.000431,0.002233
6824000,0.0324,0.013523,0.002678,0.000431,0.002468
6825000,0.0324,0.013523,0.002678,0.000431,0.002351
6826000,0.0324,0.013523,0.002678,0.000431,0.001880
6827000,0.0324,0.013523,0.002678,0.000431,0.002586
6828000,0.0324,0.013523,0.002678,0.000431,0.002468
6829000,0.0324,0.013523,0.002678,0.000431,0.002233
6830000,0.0324,0.013523,0.002678,0.000431,0.002233
6831000,0.0324,0.013523,0.002678,0.000431,0.002351
6832000,0.0324,0.013523,0.002678,0.000431,0.002351
6833000,0.0324,0.013523,0.002678,0.000431,0.002351
6834000,0.0324,0.013523,0.002678,0.000431,0.002116
6835000,0.0324,0.013523,0.002678,0.000431,0.002351
6836000,0.0324,0.013523,0.002678,0.000431,0.002116
6837000,0.0324,0.013523,0.002678,0.000431,0.002703
6838000,0.0324,0.013523,0.002678,0.000431,0.002468
6839000,0.0324,0.013523,0.002678,0.000431,0.002116
6840000,0.0324,0.013523,0.002678,0.000431,0.002586
6841000,0.0324,0.013523,0.002678,0.000431,0.002351
6842000,0.0324,0.013523,0.002678,0.000431,0.002938
6843000,0.0324,0.013523,0.002678,0.000431,0.002233
6844000,0.0324,0.013523,0.002678,0.000431,0.002703
6845000,0.0324,0.013523,0.002678,0.000431,0.002233
6846000,0.0324,0.013523,0.002678,0.000431,0.002586
6847000,0.0324,0.013523,0.002678,0.000431,0.002468
6848000,0.0324,0.013523,0.002678,0.000431,0.002233
6849000,0.0324,0.013523,0.002678,0.000431,0.002703
6850000,0.0324,0.013523,0.002678,0.000431,0.002468
6851000,0.0324,0.013523,0.002678,0.000431,0.002586
6852000,0.0324,0.013523,0.002678,0.000431,0.002233
6853000,0.0324,0.013523,0.002678,0.000431,0.002351
6854000,0.0324,0.013523,0.002678,0.000431,0.001998
6855000,0.0324,0.013523,0.002678,0.000431,0.002233
6856000,0.0324,0.013523,0.002678,0.000431,0.002116
6857000,0.0324,0.013523,0.002678,0.000431,0.002233
6858000,0.0324,0.013523,0.002678,0.000431,0.002468
6859000,0.0324,0.013523,0.002678,0.000431,0.002938
6860000,0.0324,0.013523,0.002678,0.000431,0.002233
6861000,0.0324,0.013523,0.002678,0.000431,0.002351
6862000,0.0324,0.013523,0.002678,0.000431,0.002468
6863000,0.0324,0.013523,0.002678,0.000431,0.002351
6864000,0.0324,0.013523,0.002678,0.000431,0.002351
6865000,0.0324,0.013523,0.002678,0.000431,0.002703
6866000,0.0324,0.013523,0.002678,0.000431,0.002233
6867000,0.0324,0.013523,0.002678,0.000431,0.002116
6868000,0.0324,0.013523,0.002678,0.000431,0.002116
6869000,0.0324,0.013523,0.002678,0.000431,0.002351
6870000,0.0324,0.013523,0.002678,0.000431,0.002233
6871000,0.0324,0.013523,0.002678,0.000431,0.002468
6872000,0.0324,0.013523,0.002678,0.000431,0.002703
6873000,0.0324,0.013523,0.002678,0.000431,0.002233
6874000,0.0324,0.013523,0.002678,0.000431,0.001998
6875000,0.0324,0.013523,0.002678,0.000431,0.002468
6876000,0.0324,0.013523,0.002678,0.000431,0.002233
6877000,0.0324,0.013523,0.002678,0.000431,0.001998
6878000,0.0324,0.013523,0.002678,0.000431,0.002468
6879000,0.0324,0.013523,0.002678,0.000431,0.002468
6880000,0.0324,0.013523,0.002678,0.000431,0.002351
6881000,0.0324,0.013523,0.002678,0.000431,0.002233
6882000,0.0324,0.013523,0.002678,0.000431,0.002703
6883000,0.0324,0.013523,0.002678,0.000431,0.002116
6884000,0.0324,0.013523,0.002678,0.000431,0.002116
6885000,0.0324,0.013523,0.002678,0.000431,0.002586
6886000,0.0324,0.013523,0.002678,0.000431,0.002586
6887000,0.0324,0.013523,0.002678,0.000431,0.001880
6888000,0.0324,0.013523,0.002678,0.000431,0.002351
6889000,0.0324,0.013523,0.002678,0.000431,0.002938
6890000,0.0324,0.013523,0.002678,0.000431,0.002116
6891000,0.0324,0.013523,0.002678,0.000431,0.002821
6892000,0.0324,0.013523,0.002678,0.000431,0.002703
6893000,0.0324,0.013523,0.002678,0.000431,0.002116
6894000,0.0324,0.013523,0.002678,0.000431,0.002586
6895000,0.0324,0.013523,0.002678,0.000431,0.002351
6896000,0.0324,0.013523,0.002678,0.000431,0.002586
6897000,0.0324,0.013523,0.002678,0.000431,0.002116
6898000,0.0324,0.013523,0.002678,0.000431,0.002351
6899000,0.0324,0.013523,0.002678,0.000431,0.002586
6900000,0.0324,0.013523,0.002678,0.000431,0.002586
6901000,0.0324,0.013523,0.002678,0.000431,0.002351
6902000,0.0324,0.013523,0.002678,0.000431,0.001763
6903000,0.0324,0.013523,0.002678,0.000431,0.002351
6904000,0.0324,0.013523,0.002678,0.000431,0.002703
6905000,0.0324,0.013523,0.002678,0.000431,0.002703
6906000,0.0324,0.013523,0.002678,0.000431,0.002233
6907000,0.0324,0.013523,0.002678,0.000431,0.002351
6908000,0.0324,0.013523,0.002678,0.000431,0.002586
6909000,0.0324,0.013523,0.002678,0.000431,0.002468
6910000,0.0324,0.013523,0.002678,0.000431,0.002468
6911000,0.0324,0.013523,0.002678,0.000431,0.002351
6912000,0.0324,0.013523,0.002678,0.000431,0.002233
6913000,0.0324,0.013523,0.002678,0.000431,0.002821
6914000,0.0324,0.013523,0.002678,0.000431,0.002468
6915000,0.0324,0.013523,0.002678,0.000431,0.002233
6916000,0.0324,0.013523,0.002678,0.000431,0.001998
6917000,0.0324,0.013523,0.002678,0.000431,0.002703
6918000,0.0324,0.013523,0.002678,0.000431,0.002233
6919000,0.0324,0.013523,0.002678,0.000431,0.002468
6920000,0.0324,0.013523,0.002678,0.000431,0.002116
6921000,0.0324,0.013523,0.002678,0.000431,0.002233
6922000,0.0324,0.013523,0.002678,0.000431,0.002468
6923000,0.0324,0.013523,0.002678,0.000431,0.002468
6924000,0.0324,0.013523,0.002678,0.000431,0.002351
6925000,0.0324,0.013523,0.002678,0.000431,0.002233
6926000,0.0324,0.013523,0.002678,0.000431,0.002821
6927000,0.0324,0.013523,0.002678,0.000431,0.002116
6928000,0.0324,0.013523,0.002678,0.000431,0.002703
6929000,0.0324,0.013523,0.002678,0.000431,0.002351
6930000,0.0324,0.013523,0.002678,0.000431,0.002586
6931000,0.0324,0.013523,0.002678,0.000431,0.002233
6932000,0.0324,0.013523,0.002678,0.000431,0.002703
6933000,0.0324,0.013523,0.002678,0.000431,0.001998
6934000,0.0324,0.013523,0.002678,0.000431,0.002351
6935000,0.0324,0.013523,0.002678,0.000431,0.002586
6936000,0.0324,0.013523,0.002678,0.000431,0.002233
6937000,0.0324,0.013523,0.002678,0.000431,0.002586
6938000,0.0324,0.013523,0.002678,0.000431,0.002468
6939000,0.0324,0.013523,0.002678,0.000431,0.002468
6940000,0.0324,0.013523,0.002678,0.000431,0.002586
6941000,0.0324,0.013523,0.002678,0.000431,0.002586
6942000,0.0324,0.013523,0.002678,0.000431,0.002233
6943000,0.0324,0.013523,0.002678,0.000431,0.002703
6944000,0.0324,0.013523,0.002678,0.000431,0.001998
6945000,0.0324,0.013523,0.002678,0.000431,0.002468
6946000,0.0324,0.013523,0.002678,0.000431,0.002586
6947000,0.0324,0.013523,0.002678,0.000431,0.002351
6948000,0.0324,0.013523,0.002678,0.000431,0.002233
6949000,0.0324,0.013523,0.002678,0.000431,0.002116
6950000,0.0324,0.013523,0.002678,0.000431,0.002116
6951000,0.0324,0.013523,0.002678,0.000431,0.002116
6952000,0.0324,0.013523,0.002678,0.000431,0.002116
6953000,0.0324,0.013523,0.002678,0.000431,0.002586
6954000,0.0324,0.013523,0.002678,0.000431,0.002703
6955000,0.0324,0.013523,0.002678,0.000431,0.002233
6956000,0.0324,0.013523,0.002678,0.000431,0.002468
6957000,0.0324,0.013523,0.002678,0.000431,0.002351
6958000,0.0324,0.013523,0.002678,0.000431,0.002468
6959000,0.0324,0.013523,0.002678,0.000431,0.002351
6960000,0.0324,0.013523,0.002678,0.000431,0.002586
6961000,0.0324,0.013523,0.002678,0.000431,0.002351
6962000,0.0324,0.013523,0.002678,0.000431,0.002468
6963000,0.0324,0.013523,0.002678,0.000431,0.002821
6964000,0.0324,0.013523,0.002678,0.000431,0.002233
6965000,0.0324,0.013523,0.002678,0.000431,0.002468
6966000,0.0324,0.013523,0.002678,0.000431,0.002233
6967000,0.0324,0.013523,0.002678,0.000431,0.002468
6968000,0.0324,0.013523,0.002678,0.000431,0.001880
6969000,0.0324,0.013523,0.002678,0.000431,0.002821
6970000,0.0324,0.013523,0.002678,0.000431,0.002468
6971000,0.0324,0.013523,0.002678,0.000431,0.002586
6972000,0.0324,0.013523,0.002678,0.000431,0.002351
6973000,0.0324,0.013523,0.002678,0.000431,0.002586
6974000,0.0324,0.013523,0.002678,0.000431,0.002586
6975000,0.0324,0.013523,0.002678,0.000431,0.002938
6976000,0.0324,0.013523,0.002678,0.000431,0.002116
6977000,0.0324,0.013523,0.002678,0.000431,0.002821
6978000,0.0324,0.013523,0.002678,0.000431,0.002586
6979000,0.0324,0.013523,0.002678,0.000431,0.002586
6980000,0.0324,0.013523,0.002678,0.000431,0.002233
6981000,0.0324,0.013523,0.002678,0.000431,0.002233
6982000,0.0324,0.013523,0.002678,0.000431,0.002233
6983000,0.0324,0.013523,0.002678,0.000431,0.002233
6984000,0.0324,0.013523,0.002678,0.000431,0.002233
6985000,0.0324,0.013523,0.002678,0.000431,0.002468
6986000,0.0324,0.013523,0.002678,0.000431,0.002586
6987000,0.0324,0.013523,0.002678,0.000431,0.002821
6988000,0.0324,0.013523,0.002678,0.000431,0.002468
6989000,0.0324,0.013523,0.002678,0.000431,0.002351
6990000,0.0324,0.013523,0.002678,0.000431,0.002821
6991000,0.0324,0.013523,0.002678,0.000431,0.002233
6992000,0.0324,0.013523,0.002678,0.000431,0.002233
6993000,0.0324,0.013523,0.002678,0.000431,0.002233
6994000,0.0324,0.013523,0.002678,0.000431,0.002703
6995000,0.0324,0.013523,0.002678,0.000431,0.002468
6996000,0.0324,0.013523,0.002678,0.000431,0.002586
6997000,0.0324,0.013523,0.002678,0.000431,0.002116
6998000,0.0324,0.013523,0.002678,0.000431,0.002233
6999000,0.0324,0.013523,0.002678,0.000431,0.001998
