Cycle,Area(mm^2),PeakDynamic(W),SubthresholdLeakage(W),GateLeakage(W),RunTimeDynamic(W)
7000000,0.0324,0.013523,0.002678,0.000431,0.002116
7001000,0.0324,0.013523,0.002678,0.000431,0.002468
7002000,0.0324,0.013523,0.002678,0.000431,0.002703
7003000,0.0324,0.013523,0.002678,0.000431,0.002351
7004000,0.0324,0.013523,0.002678,0.000431,0.002586
7005000,0.0324,0.013523,0.002678,0.000431,0.002468
7006000,0.0324,0.013523,0.002678,0.000431,0.002351
7007000,0.0324,0.013523,0.002678,0.000431,0.002468
7008000,0.0324,0.013523,0.002678,0.000431,0.002233
7009000,0.0324,0.013523,0.002678,0.000431,0.002233
7010000,0.0324,0.013523,0.002678,0.000431,0.002116
7011000,0.0324,0.013523,0.002678,0.000431,0.002586
7012000,0.0324,0.013523,0.002678,0.000431,0.002468
7013000,0.0324,0.013523,0.002678,0.000431,0.002938
7014000,0.0324,0.013523,0.002678,0.000431,0.002351
7015000,0.0324,0.013523,0.002678,0.000431,0.002821
7016000,0.0324,0.013523,0.002678,0.000431,0.002351
7017000,0.0324,0.013523,0.002678,0.000431,0.001998
7018000,0.0324,0.013523,0.002678,0.000431,0.001998
7019000,0.0324,0.013523,0.002678,0.000431,0.002821
7020000,0.0324,0.013523,0.002678,0.000431,0.002351
7021000,0.0324,0.013523,0.002678,0.000431,0.002586
7022000,0.0324,0.013523,0.002678,0.000431,0.002233
7023000,0.0324,0.013523,0.002678,0.000431,0.002233
7024000,0.0324,0.013523,0.002678,0.000431,0.001998
7025000,0.0324,0.013523,0.002678,0.000431,0.002586
7026000,0.0324,0.013523,0.002678,0.000431,0.002586
7027000,0.0324,0.013523,0.002678,0.000431,0.002233
7028000,0.0324,0.013523,0.002678,0.000431,0.002233
7029000,0.0324,0.013523,0.002678,0.000431,0.002468
7030000,0.0324,0.013523,0.002678,0.000431,0.002468
7031000,0.0324,0.013523,0.002678,0.000431,0.002586
7032000,0.0324,0.013523,0.002678,0.000431,0.002468
7033000,0.0324,0.013523,0.002678,0.000431,0.002116
7034000,0.0324,0.013523,0.002678,0.000431,0.002351
7035000,0.0324,0.013523,0.002678,0.000431,0.002351
7036000,0.0324,0.013523,0.002678,0.000431,0.002351
7037000,0.0324,0.013523,0.002678,0.000431,0.002233
7038000,0.0324,0.013523,0.002678,0.000431,0.002351
7039000,0.0324,0.013523,0.002678,0.000431,0.002351
7040000,0.0324,0.013523,0.002678,0.000431,0.002468
7041000,0.0324,0.013523,0.002678,0.000431,0.001998
7042000,0.0324,0.013523,0.002678,0.000431,0.002351
7043000,0.0324,0.013523,0.002678,0.000431,0.002233
7044000,0.0324,0.013523,0.002678,0.000431,0.002233
7045000,0.0324,0.013523,0.002678,0.000431,0.002703
7046000,0.0324,0.013523,0.002678,0.000431,0.002468
7047000,0.0324,0.013523,0.002678,0.000431,0.002468
7048000,0.0324,0.013523,0.002678,0.000431,0.002233
7049000,0.0324,0.013523,0.002678,0.000431,0.002586
7050000,0.0324,0.013523,0.002678,0.000431,0.002703
7051000,0.0324,0.013523,0.002678,0.000431,0.002703
7052000,0.0324,0.013523,0.002678,0.000431,0.002703
7053000,0.0324,0.013523,0.002678,0.000431,0.002351
7054000,0.0324,0.013523,0.002678,0.000431,0.002821
7055000,0.0324,0.013523,0.002678,0.000431,0.002468
7056000,0.0324,0.013523,0.002678,0.000431,0.002938
7057000,0.0324,0.013523,0.002678,0.000431,0.002468
7058000,0.0324,0.013523,0.002678,0.000431,0.003056
7059000,0.0324,0.013523,0.002678,0.000431,0.002821
7060000,0.0324,0.013523,0.002678,0.000431,0.002703
7061000,0.0324,0.013523,0.002678,0.000431,0.002821
7062000,0.0324,0.013523,0.002678,0.000431,0.002703
7063000,0.0324,0.013523,0.002678,0.000431,0.002586
7064000,0.0324,0.013523,0.002678,0.000431,0.002468
7065000,0.0324,0.013523,0.002678,0.000431,0.002703
7066000,0.0324,0.013523,0.002678,0.000431,0.002586
7067000,0.0324,0.013523,0.002678,0.000431,0.002586
7068000,0.0324,0.013523,0.002678,0.000431,0.002586
7069000,0.0324,0.013523,0.002678,0.000431,0.002938
7070000,0.0324,0.013523,0.002678,0.000431,0.002233
7071000,0.0324,0.013523,0.002678,0.000431,0.002468
7072000,0.0324,0.013523,0.002678,0.000431,0.002116
7073000,0.0324,0.013523,0.002678,0.000431,0.002233
7074000,0.0324,0.013523,0.002678,0.000431,0.002351
7075000,0.0324,0.013523,0.002678,0.000431,0.002351
7076000,0.0324,0.013523,0.002678,0.000431,0.002938
7077000,0.0324,0.013523,0.002678,0.000431,0.002116
7078000,0.0324,0.013523,0.002678,0.000431,0.002468
7079000,0.0324,0.013523,0.002678,0.000431,0.002233
7080000,0.0324,0.013523,0.002678,0.000431,0.002233
7081000,0.0324,0.013523,0.002678,0.000431,0.002586
7082000,0.0324,0.013523,0.002678,0.000431,0.002586
7083000,0.0324,0.013523,0.002678,0.000431,0.002703
7084000,0.0324,0.013523,0.002678,0.000431,0.002821
7085000,0.0324,0.013523,0.002678,0.000431,0.002351
7086000,0.0324,0.013523,0.002678,0.000431,0.002586
7087000,0.0324,0.013523,0.002678,0.000431,0.002938
7088000,0.0324,0.013523,0.002678,0.000431,0.002351
7089000,0.0324,0.013523,0.002678,0.000431,0.002586
7090000,0.0324,0.013523,0.002678,0.000431,0.002821
7091000,0.0324,0.013523,0.002678,0.000431,0.002468
7092000,0.0324,0.013523,0.002678,0.000431,0.001880
7093000,0.0324,0.013523,0.002678,0.000431,0.002468
7094000,0.0324,0.013523,0.002678,0.000431,0.002233
7095000,0.0324,0.013523,0.002678,0.000431,0.002351
7096000,0.0324,0.013523,0.002678,0.000431,0.002586
7097000,0.0324,0.013523,0.002678,0.000431,0.002351
7098000,0.0324,0.013523,0.002678,0.000431,0.002233
7099000,0.0324,0.013523,0.002678,0.000431,0.002468
7100000,0.0324,0.013523,0.002678,0.000431,0.003056
7101000,0.0324,0.013523,0.002678,0.000431,0.002468
7102000,0.0324,0.013523,0.002678,0.000431,0.002938
7103000,0.0324,0.013523,0.002678,0.000431,0.002351
7104000,0.0324,0.013523,0.002678,0.000431,0.002468
7105000,0.0324,0.013523,0.002678,0.000431,0.002351
7106000,0.0324,0.013523,0.002678,0.000431,0.002468
7107000,0.0324,0.013523,0.002678,0.000431,0.002703
7108000,0.0324,0.013523,0.002678,0.000431,0.002821
7109000,0.0324,0.013523,0.002678,0.000431,0.002586
7110000,0.0324,0.013523,0.002678,0.000431,0.002468
7111000,0.0324,0.013523,0.002678,0.000431,0.002938
7112000,0.0324,0.013523,0.002678,0.000431,0.002468
7113000,0.0324,0.013523,0.002678,0.000431,0.002703
7114000,0.0324,0.013523,0.002678,0.000431,0.002821
7115000,0.0324,0.013523,0.002678,0.000431,0.002703
7116000,0.0324,0.013523,0.002678,0.000431,0.002821
7117000,0.0324,0.013523,0.002678,0.000431,0.002938
7118000,0.0324,0.013523,0.002678,0.000431,0.002468
7119000,0.0324,0.013523,0.002678,0.000431,0.002586
7120000,0.0324,0.013523,0.002678,0.000431,0.002468
7121000,0.0324,0.013523,0.002678,0.000431,0.002351
7122000,0.0324,0.013523,0.002678,0.000431,0.002586
7123000,0.0324,0.013523,0.002678,0.000431,0.002703
7124000,0.0324,0.013523,0.002678,0.000431,0.002821
7125000,0.0324,0.013523,0.002678,0.000431,0.002468
7126000,0.0324,0.013523,0.002678,0.000431,0.002233
7127000,0.0324,0.013523,0.002678,0.000431,0.002586
7128000,0.0324,0.013523,0.002678,0.000431,0.002351
7129000,0.0324,0.013523,0.002678,0.000431,0.002821
7130000,0.0324,0.013523,0.002678,0.000431,0.003173
7131000,0.0324,0.013523,0.002678,0.000431,0.002821
7132000,0.0324,0.013523,0.002678,0.000431,0.002703
7133000,0.0324,0.013523,0.002678,0.000431,0.002586
7134000,0.0324,0.013523,0.002678,0.000431,0.002116
7135000,0.0324,0.013523,0.002678,0.000431,0.002468
7136000,0.0324,0.013523,0.002678,0.000431,0.002586
7137000,0.0324,0.013523,0.002678,0.000431,0.003173
7138000,0.0324,0.013523,0.002678,0.000431,0.002586
7139000,0.0324,0.013523,0.002678,0.000431,0.002821
7140000,0.0324,0.013523,0.002678,0.000431,0.002468
7141000,0.0324,0.013523,0.002678,0.000431,0.002116
7142000,0.0324,0.013523,0.002678,0.000431,0.003173
7143000,0.0324,0.013523,0.002678,0.000431,0.002116
7144000,0.0324,0.013523,0.002678,0.000431,0.002821
7145000,0.0324,0.013523,0.002678,0.000431,0.002938
7146000,0.0324,0.013523,0.002678,0.000431,0.002586
7147000,0.0324,0.013523,0.002678,0.000431,0.002586
7148000,0.0324,0.013523,0.002678,0.000431,0.002116
7149000,0.0324,0.013523,0.002678,0.000431,0.003056
7150000,0.0324,0.013523,0.002678,0.000431,0.002586
7151000,0.0324,0.013523,0.002678,0.000431,0.002468
7152000,0.0324,0.013523,0.002678,0.000431,0.002703
7153000,0.0324,0.013523,0.002678,0.000431,0.002821
7154000,0.0324,0.013523,0.002678,0.000431,0.002586
7155000,0.0324,0.013523,0.002678,0.000431,0.002703
7156000,0.0324,0.013523,0.002678,0.000431,0.001998
7157000,0.0324,0.013523,0.002678,0.000431,0.003056
7158000,0.0324,0.013523,0.002678,0.000431,0.002586
7159000,0.0324,0.013523,0.002678,0.000431,0.002586
7160000,0.0324,0.013523,0.002678,0.000431,0.002703
7161000,0.0324,0.013523,0.002678,0.000431,0.002586
7162000,0.0324,0.013523,0.002678,0.000431,0.002116
7163000,0.0324,0.013523,0.002678,0.000431,0.002703
7164000,0.0324,0.013523,0.002678,0.000431,0.002703
7165000,0.0324,0.013523,0.002678,0.000431,0.002468
7166000,0.0324,0.013523,0.002678,0.000431,0.002586
7167000,0.0324,0.013523,0.002678,0.000431,0.002703
7168000,0.0324,0.013523,0.002678,0.000431,0.002351
7169000,0.0324,0.013523,0.002678,0.000431,0.002586
7170000,0.0324,0.013523,0.002678,0.000431,0.002351
7171000,0.0324,0.013523,0.002678,0.000431,0.002233
7172000,0.0324,0.013523,0.002678,0.000431,0.002703
7173000,0.0324,0.013523,0.002678,0.000431,0.002821
7174000,0.0324,0.013523,0.002678,0.000431,0.002821
7175000,0.0324,0.013523,0.002678,0.000431,0.002703
7176000,0.0324,0.013523,0.002678,0.000431,0.002468
7177000,0.0324,0.013523,0.002678,0.000431,0.002586
7178000,0.0324,0.013523,0.002678,0.000431,0.002703
7179000,0.0324,0.013523,0.002678,0.000431,0.002351
7180000,0.0324,0.013523,0.002678,0.000431,0.002351
7181000,0.0324,0.013523,0.002678,0.000431,0.002586
7182000,0.0324,0.013523,0.002678,0.000431,0.002468
7183000,0.0324,0.013523,0.002678,0.000431,0.002351
7184000,0.0324,0.013523,0.002678,0.000431,0.002586
7185000,0.0324,0.013523,0.002678,0.000431,0.002586
7186000,0.0324,0.013523,0.002678,0.000431,0.002703
7187000,0.0324,0.013523,0.002678,0.000431,0.002586
7188000,0.0324,0.013523,0.002678,0.000431,0.002821
7189000,0.0324,0.013523,0.002678,0.000431,0.002703
7190000,0.0324,0.013523,0.002678,0.000431,0.002586
7191000,0.0324,0.013523,0.002678,0.000431,0.002468
7192000,0.0324,0.013523,0.002678,0.000431,0.002468
7193000,0.0324,0.013523,0.002678,0.000431,0.002586
7194000,0.0324,0.013523,0.002678,0.000431,0.002351
7195000,0.0324,0.013523,0.002678,0.000431,0.002703
7196000,0.0324,0.013523,0.002678,0.000431,0.002703
7197000,0.0324,0.013523,0.002678,0.000431,0.002586
7198000,0.0324,0.013523,0.002678,0.000431,0.002703
7199000,0.0324,0.013523,0.002678,0.000431,0.002468
7200000,0.0324,0.013523,0.002678,0.000431,0.002586
7201000,0.0324,0.013523,0.002678,0.000431,0.002703
7202000,0.0324,0.013523,0.002678,0.000431,0.002586
7203000,0.0324,0.013523,0.002678,0.000431,0.002468
7204000,0.0324,0.013523,0.002678,0.000431,0.002586
7205000,0.0324,0.013523,0.002678,0.000431,0.002821
7206000,0.0324,0.013523,0.002678,0.000431,0.002938
7207000,0.0324,0.013523,0.002678,0.000431,0.002351
7208000,0.0324,0.013523,0.002678,0.000431,0.002586
7209000,0.0324,0.013523,0.002678,0.000431,0.002351
7210000,0.0324,0.013523,0.002678,0.000431,0.002468
7211000,0.0324,0.013523,0.002678,0.000431,0.002821
7212000,0.0324,0.013523,0.002678,0.000431,0.002586
7213000,0.0324,0.013523,0.002678,0.000431,0.002116
7214000,0.0324,0.013523,0.002678,0.000431,0.002468
7215000,0.0324,0.013523,0.002678,0.000431,0.002468
7216000,0.0324,0.013523,0.002678,0.000431,0.002586
7217000,0.0324,0.013523,0.002678,0.000431,0.002586
7218000,0.0324,0.013523,0.002678,0.000431,0.002468
7219000,0.0324,0.013523,0.002678,0.000431,0.002233
7220000,0.0324,0.013523,0.002678,0.000431,0.002351
7221000,0.0324,0.013523,0.002678,0.000431,0.002586
7222000,0.0324,0.013523,0.002678,0.000431,0.002233
7223000,0.0324,0.013523,0.002678,0.000431,0.002821
7224000,0.0324,0.013523,0.002678,0.000431,0.002233
7225000,0.0324,0.013523,0.002678,0.000431,0.002703
7226000,0.0324,0.013523,0.002678,0.000431,0.002586
7227000,0.0324,0.013523,0.002678,0.000431,0.002233
7228000,0.0324,0.013523,0.002678,0.000431,0.002703
7229000,0.0324,0.013523,0.002678,0.000431,0.002233
7230000,0.0324,0.013523,0.002678,0.000431,0.002586
7231000,0.0324,0.013523,0.002678,0.000431,0.002586
7232000,0.0324,0.013523,0.002678,0.000431,0.002703
7233000,0.0324,0.013523,0.002678,0.000431,0.002703
7234000,0.0324,0.013523,0.002678,0.000431,0.002586
7235000,0.0324,0.013523,0.002678,0.000431,0.002351
7236000,0.0324,0.013523,0.002678,0.000431,0.002938
7237000,0.0324,0.013523,0.002678,0.000431,0.002821
7238000,0.0324,0.013523,0.002678,0.000431,0.002586
7239000,0.0324,0.013523,0.002678,0.000431,0.002703
7240000,0.0324,0.013523,0.002678,0.000431,0.002821
7241000,0.0324,0.013523,0.002678,0.000431,0.002351
7242000,0.0324,0.013523,0.002678,0.000431,0.002586
7243000,0.0324,0.013523,0.002678,0.000431,0.002703
7244000,0.0324,0.013523,0.002678,0.000431,0.002938
7245000,0.0324,0.013523,0.002678,0.000431,0.002468
7246000,0.0324,0.013523,0.002678,0.000431,0.002821
7247000,0.0324,0.013523,0.002678,0.000431,0.002233
7248000,0.0324,0.013523,0.002678,0.000431,0.002351
7249000,0.0324,0.013523,0.002678,0.000431,0.002468
7250000,0.0324,0.013523,0.002678,0.000431,0.002586
7251000,0.0324,0.013523,0.002678,0.000431,0.002586
7252000,0.0324,0.013523,0.002678,0.000431,0.002703
7253000,0.0324,0.013523,0.002678,0.000431,0.002468
7254000,0.0324,0.013523,0.002678,0.000431,0.002586
7255000,0.0324,0.013523,0.002678,0.000431,0.002351
7256000,0.0324,0.013523,0.002678,0.000431,0.002821
7257000,0.0324,0.013523,0.002678,0.000431,0.003056
7258000,0.0324,0.013523,0.002678,0.000431,0.002351
7259000,0.0324,0.013523,0.002678,0.000431,0.002821
7260000,0.0324,0.013523,0.002678,0.000431,0.002703
7261000,0.0324,0.013523,0.002678,0.000431,0.002351
7262000,0.0324,0.013523,0.002678,0.000431,0.002586
7263000,0.0324,0.013523,0.002678,0.000431,0.002468
7264000,0.0324,0.013523,0.002678,0.000431,0.002351
7265000,0.0324,0.013523,0.002678,0.000431,0.002586
7266000,0.0324,0.013523,0.002678,0.000431,0.002703
7267000,0.0324,0.013523,0.002678,0.000431,0.002821
7268000,0.0324,0.013523,0.002678,0.000431,0.003056
7269000,0.0324,0.013523,0.002678,0.000431,0.002821
7270000,0.0324,0.013523,0.002678,0.000431,0.002938
7271000,0.0324,0.013523,0.002678,0.000431,0.001763
7272000,0.0324,0.013523,0.002678,0.000431,0.002703
7273000,0.0324,0.013523,0.002678,0.000431,0.001998
7274000,0.0324,0.013523,0.002678,0.000431,0.002586
7275000,0.0324,0.013523,0.002678,0.000431,0.002703
7276000,0.0324,0.013523,0.002678,0.000431,0.002821
7277000,0.0324,0.013523,0.002678,0.000431,0.002586
7278000,0.0324,0.013523,0.002678,0.000431,0.002703
7279000,0.0324,0.013523,0.002678,0.000431,0.002586
7280000,0.0324,0.013523,0.002678,0.000431,0.002351
7281000,0.0324,0.013523,0.002678,0.000431,0.002703
7282000,0.0324,0.013523,0.002678,0.000431,0.002351
7283000,0.0324,0.013523,0.002678,0.000431,0.002116
7284000,0.0324,0.013523,0.002678,0.000431,0.002351
7285000,0.0324,0.013523,0.002678,0.000431,0.002821
7286000,0.0324,0.013523,0.002678,0.000431,0.002468
7287000,0.0324,0.013523,0.002678,0.000431,0.002586
7288000,0.0324,0.013523,0.002678,0.000431,0.002586
7289000,0.0324,0.013523,0.002678,0.000431,0.002233
7290000,0.0324,0.013523,0.002678,0.000431,0.002703
7291000,0.0324,0.013523,0.002678,0.000431,0.002586
7292000,0.0324,0.013523,0.002678,0.000431,0.002821
7293000,0.0324,0.013523,0.002678,0.000431,0.002468
7294000,0.0324,0.013523,0.002678,0.000431,0.002703
7295000,0.0324,0.013523,0.002678,0.000431,0.002351
7296000,0.0324,0.013523,0.002678,0.000431,0.002468
7297000,0.0324,0.013523,0.002678,0.000431,0.002703
7298000,0.0324,0.013523,0.002678,0.000431,0.002468
7299000,0.0324,0.013523,0.002678,0.000431,0.002703
7300000,0.0324,0.013523,0.002678,0.000431,0.002586
7301000,0.0324,0.013523,0.002678,0.000431,0.002586
7302000,0.0324,0.013523,0.002678,0.000431,0.002586
7303000,0.0324,0.013523,0.002678,0.000431,0.002351
7304000,0.0324,0.013523,0.002678,0.000431,0.002468
7305000,0.0324,0.013523,0.002678,0.000431,0.002586
7306000,0.0324,0.013523,0.002678,0.000431,0.002703
7307000,0.0324,0.013523,0.002678,0.000431,0.002468
7308000,0.0324,0.013523,0.002678,0.000431,0.002468
7309000,0.0324,0.013523,0.002678,0.000431,0.002586
7310000,0.0324,0.013523,0.002678,0.000431,0.002586
7311000,0.0324,0.013523,0.002678,0.000431,0.002703
7312000,0.0324,0.013523,0.002678,0.000431,0.002351
7313000,0.0324,0.013523,0.002678,0.000431,0.002821
7314000,0.0324,0.013523,0.002678,0.000431,0.002703
7315000,0.0324,0.013523,0.002678,0.000431,0.002586
7316000,0.0324,0.013523,0.002678,0.000431,0.002233
7317000,0.0324,0.013523,0.002678,0.000431,0.002468
7318000,0.0324,0.013523,0.002678,0.000431,0.002703
7319000,0.0324,0.013523,0.002678,0.000431,0.003056
7320000,0.0324,0.013523,0.002678,0.000431,0.002586
7321000,0.0324,0.013523,0.002678,0.000431,0.002586
7322000,0.0324,0.013523,0.002678,0.000431,0.003056
7323000,0.0324,0.013523,0.002678,0.000431,0.002703
7324000,0.0324,0.013523,0.002678,0.000431,0.002586
7325000,0.0324,0.013523,0.002678,0.000431,0.002233
7326000,0.0324,0.013523,0.002678,0.000431,0.002468
7327000,0.0324,0.013523,0.002678,0.000431,0.002468
7328000,0.0324,0.013523,0.002678,0.000431,0.002703
7329000,0.0324,0.013523,0.002678,0.000431,0.002586
7330000,0.0324,0.013523,0.002678,0.000431,0.002586
7331000,0.0324,0.013523,0.002678,0.000431,0.002351
7332000,0.0324,0.013523,0.002678,0.000431,0.002468
7333000,0.0324,0.013523,0.002678,0.000431,0.002468
7334000,0.0324,0.013523,0.002678,0.000431,0.002703
7335000,0.0324,0.013523,0.002678,0.000431,0.002586
7336000,0.0324,0.013523,0.002678,0.000431,0.002586
7337000,0.0324,0.013523,0.002678,0.000431,0.002703
7338000,0.0324,0.013523,0.002678,0.000431,0.002703
7339000,0.0324,0.013523,0.002678,0.000431,0.002586
7340000,0.0324,0.013523,0.002678,0.000431,0.002821
7341000,0.0324,0.013523,0.002678,0.000431,0.002351
7342000,0.0324,0.013523,0.002678,0.000431,0.002468
7343000,0.0324,0.013523,0.002678,0.000431,0.002586
7344000,0.0324,0.013523,0.002678,0.000431,0.002703
7345000,0.0324,0.013523,0.002678,0.000431,0.002351
7346000,0.0324,0.013523,0.002678,0.000431,0.002938
7347000,0.0324,0.013523,0.002678,0.000431,0.002351
7348000,0.0324,0.013523,0.002678,0.000431,0.002821
7349000,0.0324,0.013523,0.002678,0.000431,0.002821
7350000,0.0324,0.013523,0.002678,0.000431,0.002233
7351000,0.0324,0.013523,0.002678,0.000431,0.002233
7352000,0.0324,0.013523,0.002678,0.000431,0.002821
7353000,0.0324,0.013523,0.002678,0.000431,0.002468
7354000,0.0324,0.013523,0.002678,0.000431,0.002233
7355000,0.0324,0.013523,0.002678,0.000431,0.002586
7356000,0.0324,0.013523,0.002678,0.000431,0.002586
7357000,0.0324,0.013523,0.002678,0.000431,0.002938
7358000,0.0324,0.013523,0.002678,0.000431,0.002586
7359000,0.0324,0.013523,0.002678,0.000431,0.002703
7360000,0.0324,0.013523,0.002678,0.000431,0.002586
7361000,0.0324,0.013523,0.002678,0.000431,0.002938
7362000,0.0324,0.013523,0.002678,0.000431,0.002703
7363000,0.0324,0.013523,0.002678,0.000431,0.002233
7364000,0.0324,0.013523,0.002678,0.000431,0.002468
7365000,0.0324,0.013523,0.002678,0.000431,0.002351
7366000,0.0324,0.013523,0.002678,0.000431,0.003173
7367000,0.0324,0.013523,0.002678,0.000431,0.002233
7368000,0.0324,0.013523,0.002678,0.000431,0.002703
7369000,0.0324,0.013523,0.002678,0.000431,0.002468
7370000,0.0324,0.013523,0.002678,0.000431,0.002586
7371000,0.0324,0.013523,0.002678,0.000431,0.002586
7372000,0.0324,0.013523,0.002678,0.000431,0.002821
7373000,0.0324,0.013523,0.002678,0.000431,0.002116
7374000,0.0324,0.013523,0.002678,0.000431,0.002703
7375000,0.0324,0.013523,0.002678,0.000431,0.002586
7376000,0.0324,0.013523,0.002678,0.000431,0.002586
7377000,0.0324,0.013523,0.002678,0.000431,0.002703
7378000,0.0324,0.013523,0.002678,0.000431,0.002703
7379000,0.0324,0.013523,0.002678,0.000431,0.002586
7380000,0.0324,0.013523,0.002678,0.000431,0.002586
7381000,0.0324,0.013523,0.002678,0.000431,0.002703
7382000,0.0324,0.013523,0.002678,0.000431,0.002116
7383000,0.0324,0.013523,0.002678,0.000431,0.002351
7384000,0.0324,0.013523,0.002678,0.000431,0.002703
7385000,0.0324,0.013523,0.002678,0.000431,0.002468
7386000,0.0324,0.013523,0.002678,0.000431,0.002703
7387000,0.0324,0.013523,0.002678,0.000431,0.002351
7388000,0.0324,0.013523,0.002678,0.000431,0.002468
7389000,0.0324,0.013523,0.002678,0.000431,0.002233
7390000,0.0324,0.013523,0.002678,0.000431,0.002351
7391000,0.0324,0.013523,0.002678,0.000431,0.002351
7392000,0.0324,0.013523,0.002678,0.000431,0.002586
7393000,0.0324,0.013523,0.002678,0.000431,0.002938
7394000,0.0324,0.013523,0.002678,0.000431,0.002821
7395000,0.0324,0.013523,0.002678,0.000431,0.002233
7396000,0.0324,0.013523,0.002678,0.000431,0.002351
7397000,0.0324,0.013523,0.002678,0.000431,0.002703
7398000,0.0324,0.013523,0.002678,0.000431,0.002938
7399000,0.0324,0.013523,0.002678,0.000431,0.002821
7400000,0.0324,0.013523,0.002678,0.000431,0.002938
7401000,0.0324,0.013523,0.002678,0.000431,0.002351
7402000,0.0324,0.013523,0.002678,0.000431,0.002821
7403000,0.0324,0.013523,0.002678,0.000431,0.002351
7404000,0.0324,0.013523,0.002678,0.000431,0.002586
7405000,0.0324,0.013523,0.002678,0.000431,0.002586
7406000,0.0324,0.013523,0.002678,0.000431,0.002468
7407000,0.0324,0.013523,0.002678,0.000431,0.002821
7408000,0.0324,0.013523,0.002678,0.000431,0.003056
7409000,0.0324,0.013523,0.002678,0.000431,0.002468
7410000,0.0324,0.013523,0.002678,0.000431,0.002821
7411000,0.0324,0.013523,0.002678,0.000431,0.002351
7412000,0.0324,0.013523,0.002678,0.000431,0.002351
7413000,0.0324,0.013523,0.002678,0.000431,0.002703
7414000,0.0324,0.013523,0.002678,0.000431,0.002821
7415000,0.0324,0.013523,0.002678,0.000431,0.002703
7416000,0.0324,0.013523,0.002678,0.000431,0.002351
7417000,0.0324,0.013523,0.002678,0.000431,0.002468
7418000,0.0324,0.013523,0.002678,0.000431,0.002703
7419000,0.0324,0.013523,0.002678,0.000431,0.002703
7420000,0.0324,0.013523,0.002678,0.000431,0.002586
7421000,0.0324,0.013523,0.002678,0.000431,0.002938
7422000,0.0324,0.013523,0.002678,0.000431,0.002586
7423000,0.0324,0.013523,0.002678,0.000431,0.002586
7424000,0.0324,0.013523,0.002678,0.000431,0.002938
7425000,0.0324,0.013523,0.002678,0.000431,0.002233
7426000,0.0324,0.013523,0.002678,0.000431,0.002233
7427000,0.0324,0.013523,0.002678,0.000431,0.002468
7428000,0.0324,0.013523,0.002678,0.000431,0.003056
7429000,0.0324,0.013523,0.002678,0.000431,0.002586
7430000,0.0324,0.013523,0.002678,0.000431,0.002821
7431000,0.0324,0.013523,0.002678,0.000431,0.002351
7432000,0.0324,0.013523,0.002678,0.000431,0.002821
7433000,0.0324,0.013523,0.002678,0.000431,0.002703
7434000,0.0324,0.013523,0.002678,0.000431,0.002586
7435000,0.0324,0.013523,0.002678,0.000431,0.002586
7436000,0.0324,0.013523,0.002678,0.000431,0.002468
7437000,0.0324,0.013523,0.002678,0.000431,0.002703
7438000,0.0324,0.013523,0.002678,0.000431,0.002468
7439000,0.0324,0.013523,0.002678,0.000431,0.002468
7440000,0.0324,0.013523,0.002678,0.000431,0.002586
7441000,0.0324,0.013523,0.002678,0.000431,0.002703
7442000,0.0324,0.013523,0.002678,0.000431,0.002938
7443000,0.0324,0.013523,0.002678,0.000431,0.002821
7444000,0.0324,0.013523,0.002678,0.000431,0.002586
7445000,0.0324,0.013523,0.002678,0.000431,0.002821
7446000,0.0324,0.013523,0.002678,0.000431,0.002586
7447000,0.0324,0.013523,0.002678,0.000431,0.002821
7448000,0.0324,0.013523,0.002678,0.000431,0.002703
7449000,0.0324,0.013523,0.002678,0.000431,0.002821
7450000,0.0324,0.013523,0.002678,0.000431,0.002703
7451000,0.0324,0.013523,0.002678,0.000431,0.002821
7452000,0.0324,0.013523,0.002678,0.000431,0.002351
7453000,0.0324,0.013523,0.002678,0.000431,0.002586
7454000,0.0324,0.013523,0.002678,0.000431,0.002233
7455000,0.0324,0.013523,0.002678,0.000431,0.002351
7456000,0.0324,0.013523,0.002678,0.000431,0.002586
7457000,0.0324,0.013523,0.002678,0.000431,0.002468
7458000,0.0324,0.013523,0.002678,0.000431,0.002586
7459000,0.0324,0.013523,0.002678,0.000431,0.002586
7460000,0.0324,0.013523,0.002678,0.000431,0.002938
7461000,0.0324,0.013523,0.002678,0.000431,0.002586
7462000,0.0324,0.013523,0.002678,0.000431,0.002468
7463000,0.0324,0.013523,0.002678,0.000431,0.002586
7464000,0.0324,0.013523,0.002678,0.000431,0.002938
7465000,0.0324,0.013523,0.002678,0.000431,0.002703
7466000,0.0324,0.013523,0.002678,0.000431,0.002821
7467000,0.0324,0.013523,0.002678,0.000431,0.002821
7468000,0.0324,0.013523,0.002678,0.000431,0.002821
7469000,0.0324,0.013523,0.002678,0.000431,0.002468
7470000,0.0324,0.013523,0.002678,0.000431,0.002703
7471000,0.0324,0.013523,0.002678,0.000431,0.002586
7472000,0.0324,0.013523,0.002678,0.000431,0.002703
7473000,0.0324,0.013523,0.002678,0.000431,0.002821
7474000,0.0324,0.013523,0.002678,0.000431,0.002821
7475000,0.0324,0.013523,0.002678,0.000431,0.002821
7476000,0.0324,0.013523,0.002678,0.000431,0.002821
7477000,0.0324,0.013523,0.002678,0.000431,0.002703
7478000,0.0324,0.013523,0.002678,0.000431,0.002351
7479000,0.0324,0.013523,0.002678,0.000431,0.002703
7480000,0.0324,0.013523,0.002678,0.000431,0.002468
7481000,0.0324,0.013523,0.002678,0.000431,0.002351
7482000,0.0324,0.013523,0.002678,0.000431,0.002703
7483000,0.0324,0.013523,0.002678,0.000431,0.002233
7484000,0.0324,0.013523,0.002678,0.000431,0.002586
7485000,0.0324,0.013523,0.002678,0.000431,0.003056
7486000,0.0324,0.013523,0.002678,0.000431,0.003173
7487000,0.0324,0.013523,0.002678,0.000431,0.002468
7488000,0.0324,0.013523,0.002678,0.000431,0.002703
7489000,0.0324,0.013523,0.002678,0.000431,0.002351
7490000,0.0324,0.013523,0.002678,0.000431,0.002938
7491000,0.0324,0.013523,0.002678,0.000431,0.002351
7492000,0.0324,0.013523,0.002678,0.000431,0.002821
7493000,0.0324,0.013523,0.002678,0.000431,0.002468
7494000,0.0324,0.013523,0.002678,0.000431,0.003056
7495000,0.0324,0.013523,0.002678,0.000431,0.002586
7496000,0.0324,0.013523,0.002678,0.000431,0.003056
7497000,0.0324,0.013523,0.002678,0.000431,0.002586
7498000,0.0324,0.013523,0.002678,0.000431,0.002938
7499000,0.0324,0.013523,0.002678,0.000431,0.002468
7500000,0.0324,0.013523,0.002678,0.000431,0.002586
7501000,0.0324,0.013523,0.002678,0.000431,0.002821
7502000,0.0324,0.013523,0.002678,0.000431,0.002351
7503000,0.0324,0.013523,0.002678,0.000431,0.002586
7504000,0.0324,0.013523,0.002678,0.000431,0.002703
7505000,0.0324,0.013523,0.002678,0.000431,0.002233
7506000,0.0324,0.013523,0.002678,0.000431,0.002586
7507000,0.0324,0.013523,0.002678,0.000431,0.003173
7508000,0.0324,0.013523,0.002678,0.000431,0.001880
7509000,0.0324,0.013523,0.002678,0.000431,0.002351
7510000,0.0324,0.013523,0.002678,0.000431,0.002233
7511000,0.0324,0.013523,0.002678,0.000431,0.002468
7512000,0.0324,0.013523,0.002678,0.000431,0.002821
7513000,0.0324,0.013523,0.002678,0.000431,0.002468
7514000,0.0324,0.013523,0.002678,0.000431,0.002468
7515000,0.0324,0.013523,0.002678,0.000431,0.002116
7516000,0.0324,0.013523,0.002678,0.000431,0.002468
7517000,0.0324,0.013523,0.002678,0.000431,0.002233
7518000,0.0324,0.013523,0.002678,0.000431,0.002233
7519000,0.0324,0.013523,0.002678,0.000431,0.002821
7520000,0.0324,0.013523,0.002678,0.000431,0.002938
7521000,0.0324,0.013523,0.002678,0.000431,0.002468
7522000,0.0324,0.013523,0.002678,0.000431,0.002703
7523000,0.0324,0.013523,0.002678,0.000431,0.002821
7524000,0.0324,0.013523,0.002678,0.000431,0.003173
7525000,0.0324,0.013523,0.002678,0.000431,0.002703
7526000,0.0324,0.013523,0.002678,0.000431,0.002586
7527000,0.0324,0.013523,0.002678,0.000431,0.002703
7528000,0.0324,0.013523,0.002678,0.000431,0.002586
7529000,0.0324,0.013523,0.002678,0.000431,0.002938
7530000,0.0324,0.013523,0.002678,0.000431,0.002938
7531000,0.0324,0.013523,0.002678,0.000431,0.002821
7532000,0.0324,0.013523,0.002678,0.000431,0.002703
7533000,0.0324,0.013523,0.002678,0.000431,0.002821
7534000,0.0324,0.013523,0.002678,0.000431,0.002586
7535000,0.0324,0.013523,0.002678,0.000431,0.002586
7536000,0.0324,0.013523,0.002678,0.000431,0.002351
7537000,0.0324,0.013523,0.002678,0.000431,0.002703
7538000,0.0324,0.013523,0.002678,0.000431,0.002821
7539000,0.0324,0.013523,0.002678,0.000431,0.002703
7540000,0.0324,0.013523,0.002678,0.000431,0.002703
7541000,0.0324,0.013523,0.002678,0.000431,0.002938
7542000,0.0324,0.013523,0.002678,0.000431,0.002821
7543000,0.0324,0.013523,0.002678,0.000431,0.003056
7544000,0.0324,0.013523,0.002678,0.000431,0.002586
7545000,0.0324,0.013523,0.002678,0.000431,0.003056
7546000,0.0324,0.013523,0.002678,0.000431,0.002468
7547000,0.0324,0.013523,0.002678,0.000431,0.002468
7548000,0.0324,0.013523,0.002678,0.000431,0.002938
7549000,0.0324,0.013523,0.002678,0.000431,0.002468
7550000,0.0324,0.013523,0.002678,0.000431,0.002351
7551000,0.0324,0.013523,0.002678,0.000431,0.002233
7552000,0.0324,0.013523,0.002678,0.000431,0.003173
7553000,0.0324,0.013523,0.002678,0.000431,0.002938
7554000,0.0324,0.013523,0.002678,0.000431,0.002703
7555000,0.0324,0.013523,0.002678,0.000431,0.002586
7556000,0.0324,0.013523,0.002678,0.000431,0.002703
7557000,0.0324,0.013523,0.002678,0.000431,0.003056
7558000,0.0324,0.013523,0.002678,0.000431,0.002703
7559000,0.0324,0.013523,0.002678,0.000431,0.002703
7560000,0.0324,0.013523,0.002678,0.000431,0.002821
7561000,0.0324,0.013523,0.002678,0.000431,0.002116
7562000,0.0324,0.013523,0.002678,0.000431,0.002703
7563000,0.0324,0.013523,0.002678,0.000431,0.002586
7564000,0.0324,0.013523,0.002678,0.000431,0.002351
7565000,0.0324,0.013523,0.002678,0.000431,0.002703
7566000,0.0324,0.013523,0.002678,0.000431,0.002586
7567000,0.0324,0.013523,0.002678,0.000431,0.002586
7568000,0.0324,0.013523,0.002678,0.000431,0.002938
7569000,0.0324,0.013523,0.002678,0.000431,0.002703
7570000,0.0324,0.013523,0.002678,0.000431,0.002351
7571000,0.0324,0.013523,0.002678,0.000431,0.003056
7572000,0.0324,0.013523,0.002678,0.000431,0.002351
7573000,0.0324,0.013523,0.002678,0.000431,0.002821
7574000,0.0324,0.013523,0.002678,0.000431,0.002703
7575000,0.0324,0.013523,0.002678,0.000431,0.002703
7576000,0.0324,0.013523,0.002678,0.000431,0.002703
7577000,0.0324,0.013523,0.002678,0.000431,0.002586
7578000,0.0324,0.013523,0.002678,0.000431,0.002703
7579000,0.0324,0.013523,0.002678,0.000431,0.002116
7580000,0.0324,0.013523,0.002678,0.000431,0.002938
7581000,0.0324,0.013523,0.002678,0.000431,0.002703
7582000,0.0324,0.013523,0.002678,0.000431,0.003056
7583000,0.0324,0.013523,0.002678,0.000431,0.002468
7584000,0.0324,0.013523,0.002678,0.000431,0.002703
7585000,0.0324,0.013523,0.002678,0.000431,0.002468
7586000,0.0324,0.013523,0.002678,0.000431,0.002703
7587000,0.0324,0.013523,0.002678,0.000431,0.002351
7588000,0.0324,0.013523,0.002678,0.000431,0.002586
7589000,0.0324,0.013523,0.002678,0.000431,0.002351
7590000,0.0324,0.013523,0.002678,0.000431,0.002821
7591000,0.0324,0.013523,0.002678,0.000431,0.002468
7592000,0.0324,0.013523,0.002678,0.000431,0.002703
7593000,0.0324,0.013523,0.002678,0.000431,0.002821
7594000,0.0324,0.013523,0.002678,0.000431,0.002468
7595000,0.0324,0.013523,0.002678,0.000431,0.003173
7596000,0.0324,0.013523,0.002678,0.000431,0.002351
7597000,0.0324,0.013523,0.002678,0.000431,0.002938
7598000,0.0324,0.013523,0.002678,0.000431,0.003408
7599000,0.0324,0.013523,0.002678,0.000431,0.002468
7600000,0.0324,0.013523,0.002678,0.000431,0.002586
7601000,0.0324,0.013523,0.002678,0.000431,0.002703
7602000,0.0324,0.013523,0.002678,0.000431,0.002586
7603000,0.0324,0.013523,0.002678,0.000431,0.002938
7604000,0.0324,0.013523,0.002678,0.000431,0.002938
7605000,0.0324,0.013523,0.002678,0.000431,0.002821
7606000,0.0324,0.013523,0.002678,0.000431,0.002821
7607000,0.0324,0.013523,0.002678,0.000431,0.002703
7608000,0.0324,0.013523,0.002678,0.000431,0.002703
7609000,0.0324,0.013523,0.002678,0.000431,0.002703
7610000,0.0324,0.013523,0.002678,0.000431,0.003291
7611000,0.0324,0.013523,0.002678,0.000431,0.002586
7612000,0.0324,0.013523,0.002678,0.000431,0.002938
7613000,0.0324,0.013523,0.002678,0.000431,0.002468
7614000,0.0324,0.013523,0.002678,0.000431,0.002821
7615000,0.0324,0.013523,0.002678,0.000431,0.002703
7616000,0.0324,0.013523,0.002678,0.000431,0.002821
7617000,0.0324,0.013523,0.002678,0.000431,0.002586
7618000,0.0324,0.013523,0.002678,0.000431,0.002586
7619000,0.0324,0.013523,0.002678,0.000431,0.003173
7620000,0.0324,0.013523,0.002678,0.000431,0.002938
7621000,0.0324,0.013523,0.002678,0.000431,0.002703
7622000,0.0324,0.013523,0.002678,0.000431,0.002586
7623000,0.0324,0.013523,0.002678,0.000431,0.002938
7624000,0.0324,0.013523,0.002678,0.000431,0.002351
7625000,0.0324,0.013523,0.002678,0.000431,0.002938
7626000,0.0324,0.013523,0.002678,0.000431,0.002703
7627000,0.0324,0.013523,0.002678,0.000431,0.002586
7628000,0.0324,0.013523,0.002678,0.000431,0.002586
7629000,0.0324,0.013523,0.002678,0.000431,0.002586
7630000,0.0324,0.013523,0.002678,0.000431,0.002586
7631000,0.0324,0.013523,0.002678,0.000431,0.002586
7632000,0.0324,0.013523,0.002678,0.000431,0.002586
7633000,0.0324,0.013523,0.002678,0.000431,0.002586
7634000,0.0324,0.013523,0.002678,0.000431,0.002351
7635000,0.0324,0.013523,0.002678,0.000431,0.002468
7636000,0.0324,0.013523,0.002678,0.000431,0.002703
7637000,0.0324,0.013523,0.002678,0.000431,0.002351
7638000,0.0324,0.013523,0.002678,0.000431,0.002586
7639000,0.0324,0.013523,0.002678,0.000431,0.002586
7640000,0.0324,0.013523,0.002678,0.000431,0.002351
7641000,0.0324,0.013523,0.002678,0.000431,0.002703
7642000,0.0324,0.013523,0.002678,0.000431,0.002586
7643000,0.0324,0.013523,0.002678,0.000431,0.002821
7644000,0.0324,0.013523,0.002678,0.000431,0.002468
7645000,0.0324,0.013523,0.002678,0.000431,0.002351
7646000,0.0324,0.013523,0.002678,0.000431,0.001998
7647000,0.0324,0.013523,0.002678,0.000431,0.002586
7648000,0.0324,0.013523,0.002678,0.000431,0.002821
7649000,0.0324,0.013523,0.002678,0.000431,0.002703
7650000,0.0324,0.013523,0.002678,0.000431,0.002586
7651000,0.0324,0.013523,0.002678,0.000431,0.002116
7652000,0.0324,0.013523,0.002678,0.000431,0.002821
7653000,0.0324,0.013523,0.002678,0.000431,0.002703
7654000,0.0324,0.013523,0.002678,0.000431,0.002703
7655000,0.0324,0.013523,0.002678,0.000431,0.002468
7656000,0.0324,0.013523,0.002678,0.000431,0.002821
7657000,0.0324,0.013523,0.002678,0.000431,0.002586
7658000,0.0324,0.013523,0.002678,0.000431,0.002468
7659000,0.0324,0.013523,0.002678,0.000431,0.002938
7660000,0.0324,0.013523,0.002678,0.000431,0.002586
7661000,0.0324,0.013523,0.002678,0.000431,0.002703
7662000,0.0324,0.013523,0.002678,0.000431,0.001998
7663000,0.0324,0.013523,0.002678,0.000431,0.002703
7664000,0.0324,0.013523,0.002678,0.000431,0.002351
7665000,0.0324,0.013523,0.002678,0.000431,0.002586
7666000,0.0324,0.013523,0.002678,0.000431,0.002351
7667000,0.0324,0.013523,0.002678,0.000431,0.002351
7668000,0.0324,0.013523,0.002678,0.000431,0.002468
7669000,0.0324,0.013523,0.002678,0.000431,0.002586
7670000,0.0324,0.013523,0.002678,0.000431,0.002586
7671000,0.0324,0.013523,0.002678,0.000431,0.002351
7672000,0.0324,0.013523,0.002678,0.000431,0.002351
7673000,0.0324,0.013523,0.002678,0.000431,0.002351
7674000,0.0324,0.013523,0.002678,0.000431,0.002351
7675000,0.0324,0.013523,0.002678,0.000431,0.002821
7676000,0.0324,0.013523,0.002678,0.000431,0.002468
7677000,0.0324,0.013523,0.002678,0.000431,0.002821
7678000,0.0324,0.013523,0.002678,0.000431,0.002586
7679000,0.0324,0.013523,0.002678,0.000431,0.002116
7680000,0.0324,0.013523,0.002678,0.000431,0.002586
7681000,0.0324,0.013523,0.002678,0.000431,0.001998
7682000,0.0324,0.013523,0.002678,0.000431,0.002586
7683000,0.0324,0.013523,0.002678,0.000431,0.002703
7684000,0.0324,0.013523,0.002678,0.000431,0.002351
7685000,0.0324,0.013523,0.002678,0.000431,0.002351
7686000,0.0324,0.013523,0.002678,0.000431,0.002468
7687000,0.0324,0.013523,0.002678,0.000431,0.002821
7688000,0.0324,0.013523,0.002678,0.000431,0.002468
7689000,0.0324,0.013523,0.002678,0.000431,0.002586
7690000,0.0324,0.013523,0.002678,0.000431,0.001998
7691000,0.0324,0.013523,0.002678,0.000431,0.002586
7692000,0.0324,0.013523,0.002678,0.000431,0.002821
7693000,0.0324,0.013523,0.002678,0.000431,0.002116
7694000,0.0324,0.013523,0.002678,0.000431,0.002116
7695000,0.0324,0.013523,0.002678,0.000431,0.002351
7696000,0.0324,0.013523,0.002678,0.000431,0.002468
7697000,0.0324,0.013523,0.002678,0.000431,0.002586
7698000,0.0324,0.013523,0.002678,0.000431,0.002351
7699000,0.0324,0.013523,0.002678,0.000431,0.002351
7700000,0.0324,0.013523,0.002678,0.000431,0.002821
7701000,0.0324,0.013523,0.002678,0.000431,0.002468
7702000,0.0324,0.013523,0.002678,0.000431,0.002351
7703000,0.0324,0.013523,0.002678,0.000431,0.002703
7704000,0.0324,0.013523,0.002678,0.000431,0.001880
7705000,0.0324,0.013523,0.002678,0.000431,0.002586
7706000,0.0324,0.013523,0.002678,0.000431,0.002821
7707000,0.0324,0.013523,0.002678,0.000431,0.002468
7708000,0.0324,0.013523,0.002678,0.000431,0.002468
7709000,0.0324,0.013523,0.002678,0.000431,0.002821
7710000,0.0324,0.013523,0.002678,0.000431,0.002586
7711000,0.0324,0.013523,0.002678,0.000431,0.002233
7712000,0.0324,0.013523,0.002678,0.000431,0.002351
7713000,0.0324,0.013523,0.002678,0.000431,0.002586
7714000,0.0324,0.013523,0.002678,0.000431,0.002233
7715000,0.0324,0.013523,0.002678,0.000431,0.002116
7716000,0.0324,0.013523,0.002678,0.000431,0.002116
7717000,0.0324,0.013523,0.002678,0.000431,0.002351
7718000,0.0324,0.013523,0.002678,0.000431,0.002703
7719000,0.0324,0.013523,0.002678,0.000431,0.002938
7720000,0.0324,0.013523,0.002678,0.000431,0.002821
7721000,0.0324,0.013523,0.002678,0.000431,0.002586
7722000,0.0324,0.013523,0.002678,0.000431,0.001998
7723000,0.0324,0.013523,0.002678,0.000431,0.002703
7724000,0.0324,0.013523,0.002678,0.000431,0.002821
7725000,0.0324,0.013523,0.002678,0.000431,0.002703
7726000,0.0324,0.013523,0.002678,0.000431,0.002586
7727000,0.0324,0.013523,0.002678,0.000431,0.002351
7728000,0.0324,0.013523,0.002678,0.000431,0.002821
7729000,0.0324,0.013523,0.002678,0.000431,0.002468
7730000,0.0324,0.013523,0.002678,0.000431,0.002703
7731000,0.0324,0.013523,0.002678,0.000431,0.002351
7732000,0.0324,0.013523,0.002678,0.000431,0.002586
7733000,0.0324,0.013523,0.002678,0.000431,0.002468
7734000,0.0324,0.013523,0.002678,0.000431,0.002586
7735000,0.0324,0.013523,0.002678,0.000431,0.002351
7736000,0.0324,0.013523,0.002678,0.000431,0.002586
7737000,0.0324,0.013523,0.002678,0.000431,0.002468
7738000,0.0324,0.013523,0.002678,0.000431,0.002586
7739000,0.0324,0.013523,0.002678,0.000431,0.002586
7740000,0.0324,0.013523,0.002678,0.000431,0.002233
7741000,0.0324,0.013523,0.002678,0.000431,0.002468
7742000,0.0324,0.013523,0.002678,0.000431,0.002233
7743000,0.0324,0.013523,0.002678,0.000431,0.002468
7744000,0.0324,0.013523,0.002678,0.000431,0.002233
7745000,0.0324,0.013523,0.002678,0.000431,0.002233
7746000,0.0324,0.013523,0.002678,0.000431,0.003056
7747000,0.0324,0.013523,0.002678,0.000431,0.002116
7748000,0.0324,0.013523,0.002678,0.000431,0.002821
7749000,0.0324,0.013523,0.002678,0.000431,0.002703
7750000,0.0324,0.013523,0.002678,0.000431,0.002703
7751000,0.0324,0.013523,0.002678,0.000431,0.002586
7752000,0.0324,0.013523,0.002678,0.000431,0.002351
7753000,0.0324,0.013523,0.002678,0.000431,0.002468
7754000,0.0324,0.013523,0.002678,0.000431,0.002703
7755000,0.0324,0.013523,0.002678,0.000431,0.002821
7756000,0.0324,0.013523,0.002678,0.000431,0.002586
7757000,0.0324,0.013523,0.002678,0.000431,0.002468
7758000,0.0324,0.013523,0.002678,0.000431,0.002821
7759000,0.0324,0.013523,0.002678,0.000431,0.002586
7760000,0.0324,0.013523,0.002678,0.000431,0.002351
7761000,0.0324,0.013523,0.002678,0.000431,0.002821
7762000,0.0324,0.013523,0.002678,0.000431,0.002586
7763000,0.0324,0.013523,0.002678,0.000431,0.002586
7764000,0.0324,0.013523,0.002678,0.000431,0.002938
7765000,0.0324,0.013523,0.002678,0.000431,0.002233
7766000,0.0324,0.013523,0.002678,0.000431,0.002703
7767000,0.0324,0.013523,0.002678,0.000431,0.002703
7768000,0.0324,0.013523,0.002678,0.000431,0.002468
7769000,0.0324,0.013523,0.002678,0.000431,0.002703
7770000,0.0324,0.013523,0.002678,0.000431,0.002468
7771000,0.0324,0.013523,0.002678,0.000431,0.002116
7772000,0.0324,0.013523,0.002678,0.000431,0.002703
7773000,0.0324,0.013523,0.002678,0.000431,0.002938
7774000,0.0324,0.013523,0.002678,0.000431,0.002468
7775000,0.0324,0.013523,0.002678,0.000431,0.002468
7776000,0.0324,0.013523,0.002678,0.000431,0.002586
7777000,0.0324,0.013523,0.002678,0.000431,0.002586
7778000,0.0324,0.013523,0.002678,0.000431,0.002233
7779000,0.0324,0.013523,0.002678,0.000431,0.001998
7780000,0.0324,0.013523,0.002678,0.000431,0.002938
7781000,0.0324,0.013523,0.002678,0.000431,0.002703
7782000,0.0324,0.013523,0.002678,0.000431,0.003056
7783000,0.0324,0.013523,0.002678,0.000431,0.002586
7784000,0.0324,0.013523,0.002678,0.000431,0.002586
7785000,0.0324,0.013523,0.002678,0.000431,0.003056
7786000,0.0324,0.013523,0.002678,0.000431,0.002586
7787000,0.0324,0.013523,0.002678,0.000431,0.002116
7788000,0.0324,0.013523,0.002678,0.000431,0.001998
7789000,0.0324,0.013523,0.002678,0.000431,0.002586
7790000,0.0324,0.013523,0.002678,0.000431,0.002938
7791000,0.0324,0.013523,0.002678,0.000431,0.002703
7792000,0.0324,0.013523,0.002678,0.000431,0.002703
7793000,0.0324,0.013523,0.002678,0.000431,0.002703
7794000,0.0324,0.013523,0.002678,0.000431,0.002821
7795000,0.0324,0.013523,0.002678,0.000431,0.002468
7796000,0.0324,0.013523,0.002678,0.000431,0.002586
7797000,0.0324,0.013523,0.002678,0.000431,0.003056
7798000,0.0324,0.013523,0.002678,0.000431,0.002233
7799000,0.0324,0.013523,0.002678,0.000431,0.002116
7800000,0.0324,0.013523,0.002678,0.000431,0.002821
7801000,0.0324,0.013523,0.002678,0.000431,0.002351
7802000,0.0324,0.013523,0.002678,0.000431,0.002233
7803000,0.0324,0.013523,0.002678,0.000431,0.002821
7804000,0.0324,0.013523,0.002678,0.000431,0.002233
7805000,0.0324,0.013523,0.002678,0.000431,0.002468
7806000,0.0324,0.013523,0.002678,0.000431,0.002468
7807000,0.0324,0.013523,0.002678,0.000431,0.002586
7808000,0.0324,0.013523,0.002678,0.000431,0.002116
7809000,0.0324,0.013523,0.002678,0.000431,0.002703
7810000,0.0324,0.013523,0.002678,0.000431,0.002468
7811000,0.0324,0.013523,0.002678,0.000431,0.002821
7812000,0.0324,0.013523,0.002678,0.000431,0.002938
7813000,0.0324,0.013523,0.002678,0.000431,0.002586
7814000,0.0324,0.013523,0.002678,0.000431,0.002586
7815000,0.0324,0.013523,0.002678,0.000431,0.002703
7816000,0.0324,0.013523,0.002678,0.000431,0.002116
7817000,0.0324,0.013523,0.002678,0.000431,0.002703
7818000,0.0324,0.013523,0.002678,0.000431,0.002586
7819000,0.0324,0.013523,0.002678,0.000431,0.002468
7820000,0.0324,0.013523,0.002678,0.000431,0.002233
7821000,0.0324,0.013523,0.002678,0.000431,0.002468
7822000,0.0324,0.013523,0.002678,0.000431,0.002821
7823000,0.0324,0.013523,0.002678,0.000431,0.002821
7824000,0.0324,0.013523,0.002678,0.000431,0.002233
7825000,0.0324,0.013523,0.002678,0.000431,0.002586
7826000,0.0324,0.013523,0.002678,0.000431,0.002116
7827000,0.0324,0.013523,0.002678,0.000431,0.002586
7828000,0.0324,0.013523,0.002678,0.000431,0.002703
7829000,0.0324,0.013523,0.002678,0.000431,0.002351
7830000,0.0324,0.013523,0.002678,0.000431,0.002351
7831000,0.0324,0.013523,0.002678,0.000431,0.002351
7832000,0.0324,0.013523,0.002678,0.000431,0.002351
7833000,0.0324,0.013523,0.002678,0.000431,0.002233
7834000,0.0324,0.013523,0.002678,0.000431,0.002233
7835000,0.0324,0.013523,0.002678,0.000431,0.002468
7836000,0.0324,0.013523,0.002678,0.000431,0.002586
7837000,0.0324,0.013523,0.002678,0.000431,0.002116
7838000,0.0324,0.013523,0.002678,0.000431,0.002703
7839000,0.0324,0.013523,0.002678,0.000431,0.002821
7840000,0.0324,0.013523,0.002678,0.000431,0.002351
7841000,0.0324,0.013523,0.002678,0.000431,0.002703
7842000,0.0324,0.013523,0.002678,0.000431,0.002586
7843000,0.0324,0.013523,0.002678,0.000431,0.002351
7844000,0.0324,0.013523,0.002678,0.000431,0.002938
7845000,0.0324,0.013523,0.002678,0.000431,0.001998
7846000,0.0324,0.013523,0.002678,0.000431,0.002468
7847000,0.0324,0.013523,0.002678,0.000431,0.002468
7848000,0.0324,0.013523,0.002678,0.000431,0.002233
7849000,0.0324,0.013523,0.002678,0.000431,0.002351
7850000,0.0324,0.013523,0.002678,0.000431,0.002586
7851000,0.0324,0.013523,0.002678,0.000431,0.002116
7852000,0.0324,0.013523,0.002678,0.000431,0.002586
7853000,0.0324,0.013523,0.002678,0.000431,0.002821
7854000,0.0324,0.013523,0.002678,0.000431,0.002821
7855000,0.0324,0.013523,0.002678,0.000431,0.002821
7856000,0.0324,0.013523,0.002678,0.000431,0.002468
7857000,0.0324,0.013523,0.002678,0.000431,0.002703
7858000,0.0324,0.013523,0.002678,0.000431,0.002938
7859000,0.0324,0.013523,0.002678,0.000431,0.002468
7860000,0.0324,0.013523,0.002678,0.000431,0.002586
7861000,0.0324,0.013523,0.002678,0.000431,0.002703
7862000,0.0324,0.013523,0.002678,0.000431,0.002703
7863000,0.0324,0.013523,0.002678,0.000431,0.002351
7864000,0.0324,0.013523,0.002678,0.000431,0.002821
7865000,0.0324,0.013523,0.002678,0.000431,0.002468
7866000,0.0324,0.013523,0.002678,0.000431,0.002468
7867000,0.0324,0.013523,0.002678,0.000431,0.002468
7868000,0.0324,0.013523,0.002678,0.000431,0.002586
7869000,0.0324,0.013523,0.002678,0.000431,0.002116
7870000,0.0324,0.013523,0.002678,0.000431,0.002116
7871000,0.0324,0.013523,0.002678,0.000431,0.002586
7872000,0.0324,0.013523,0.002678,0.000431,0.002468
7873000,0.0324,0.013523,0.002678,0.000431,0.002703
7874000,0.0324,0.013523,0.002678,0.000431,0.002468
7875000,0.0324,0.013523,0.002678,0.000431,0.002468
7876000,0.0324,0.013523,0.002678,0.000431,0.002468
7877000,0.0324,0.013523,0.002678,0.000431,0.002351
7878000,0.0324,0.013523,0.002678,0.000431,0.002233
7879000,0.0324,0.013523,0.002678,0.000431,0.002233
7880000,0.0324,0.013523,0.002678,0.000431,0.001880
7881000,0.0324,0.013523,0.002678,0.000431,0.002468
7882000,0.0324,0.013523,0.002678,0.000431,0.002821
7883000,0.0324,0.013523,0.002678,0.000431,0.002586
7884000,0.0324,0.013523,0.002678,0.000431,0.002703
7885000,0.0324,0.013523,0.002678,0.000431,0.003056
7886000,0.0324,0.013523,0.002678,0.000431,0.002116
7887000,0.0324,0.013523,0.002678,0.000431,0.002233
7888000,0.0324,0.013523,0.002678,0.000431,0.002233
7889000,0.0324,0.013523,0.002678,0.000431,0.002938
7890000,0.0324,0.013523,0.002678,0.000431,0.002703
7891000,0.0324,0.013523,0.002678,0.000431,0.002586
7892000,0.0324,0.013523,0.002678,0.000431,0.002821
7893000,0.0324,0.013523,0.002678,0.000431,0.002821
7894000,0.0324,0.013523,0.002678,0.000431,0.002468
7895000,0.0324,0.013523,0.002678,0.000431,0.002468
7896000,0.0324,0.013523,0.002678,0.000431,0.002586
7897000,0.0324,0.013523,0.002678,0.000431,0.002233
7898000,0.0324,0.013523,0.002678,0.000431,0.002116
7899000,0.0324,0.013523,0.002678,0.000431,0.002468
7900000,0.0324,0.013523,0.002678,0.000431,0.002703
7901000,0.0324,0.013523,0.002678,0.000431,0.002351
7902000,0.0324,0.013523,0.002678,0.000431,0.002703
7903000,0.0324,0.013523,0.002678,0.000431,0.002351
7904000,0.0324,0.013523,0.002678,0.000431,0.002351
7905000,0.0324,0.013523,0.002678,0.000431,0.002938
7906000,0.0324,0.013523,0.002678,0.000431,0.002703
7907000,0.0324,0.013523,0.002678,0.000431,0.001880
7908000,0.0324,0.013523,0.002678,0.000431,0.002233
7909000,0.0324,0.013523,0.002678,0.000431,0.002821
7910000,0.0324,0.013523,0.002678,0.000431,0.002351
7911000,0.0324,0.013523,0.002678,0.000431,0.002938
7912000,0.0324,0.013523,0.002678,0.000431,0.002116
7913000,0.0324,0.013523,0.002678,0.000431,0.002938
7914000,0.0324,0.013523,0.002678,0.000431,0.002821
7915000,0.0324,0.013523,0.002678,0.000431,0.002586
7916000,0.0324,0.013523,0.002678,0.000431,0.002233
7917000,0.0324,0.013523,0.002678,0.000431,0.002821
7918000,0.0324,0.013523,0.002678,0.000431,0.002938
7919000,0.0324,0.013523,0.002678,0.000431,0.002233
7920000,0.0324,0.013523,0.002678,0.000431,0.002351
7921000,0.0324,0.013523,0.002678,0.000431,0.002351
7922000,0.0324,0.013523,0.002678,0.000431,0.002586
7923000,0.0324,0.013523,0.002678,0.000431,0.002468
7924000,0.0324,0.013523,0.002678,0.000431,0.002821
7925000,0.0324,0.013523,0.002678,0.000431,0.002586
7926000,0.0324,0.013523,0.002678,0.000431,0.002703
7927000,0.0324,0.013523,0.002678,0.000431,0.002821
7928000,0.0324,0.013523,0.002678,0.000431,0.002586
7929000,0.0324,0.013523,0.002678,0.000431,0.002821
7930000,0.0324,0.013523,0.002678,0.000431,0.002586
7931000,0.0324,0.013523,0.002678,0.000431,0.002233
7932000,0.0324,0.013523,0.002678,0.000431,0.002821
7933000,0.0324,0.013523,0.002678,0.000431,0.002116
7934000,0.0324,0.013523,0.002678,0.000431,0.002351
7935000,0.0324,0.013523,0.002678,0.000431,0.002116
7936000,0.0324,0.013523,0.002678,0.000431,0.002468
7937000,0.0324,0.013523,0.002678,0.000431,0.002116
7938000,0.0324,0.013523,0.002678,0.000431,0.002586
7939000,0.0324,0.013523,0.002678,0.000431,0.002586
7940000,0.0324,0.013523,0.002678,0.000431,0.002351
7941000,0.0324,0.013523,0.002678,0.000431,0.002116
7942000,0.0324,0.013523,0.002678,0.000431,0.002703
7943000,0.0324,0.013523,0.002678,0.000431,0.002938
7944000,0.0324,0.013523,0.002678,0.000431,0.001998
7945000,0.0324,0.013523,0.002678,0.000431,0.002938
7946000,0.0324,0.013523,0.002678,0.000431,0.002703
7947000,0.0324,0.013523,0.002678,0.000431,0.002468
7948000,0.0324,0.013523,0.002678,0.000431,0.002703
7949000,0.0324,0.013523,0.002678,0.000431,0.002468
7950000,0.0324,0.013523,0.002678,0.000431,0.002586
7951000,0.0324,0.013523,0.002678,0.000431,0.002703
7952000,0.0324,0.013523,0.002678,0.000431,0.002233
7953000,0.0324,0.013523,0.002678,0.000431,0.002586
7954000,0.0324,0.013523,0.002678,0.000431,0.002468
7955000,0.0324,0.013523,0.002678,0.000431,0.002938
7956000,0.0324,0.013523,0.002678,0.000431,0.002821
7957000,0.0324,0.013523,0.002678,0.000431,0.002703
7958000,0.0324,0.013523,0.002678,0.000431,0.002703
7959000,0.0324,0.013523,0.002678,0.000431,0.002821
7960000,0.0324,0.013523,0.002678,0.000431,0.002233
7961000,0.0324,0.013523,0.002678,0.000431,0.003056
7962000,0.0324,0.013523,0.002678,0.000431,0.002233
7963000,0.0324,0.013523,0.002678,0.000431,0.002586
7964000,0.0324,0.013523,0.002678,0.000431,0.002468
7965000,0.0324,0.013523,0.002678,0.000431,0.002821
7966000,0.0324,0.013523,0.002678,0.000431,0.002821
7967000,0.0324,0.013523,0.002678,0.000431,0.003056
7968000,0.0324,0.013523,0.002678,0.000431,0.002821
7969000,0.0324,0.013523,0.002678,0.000431,0.002586
7970000,0.0324,0.013523,0.002678,0.000431,0.002233
7971000,0.0324,0.013523,0.002678,0.000431,0.002703
7972000,0.0324,0.013523,0.002678,0.000431,0.002116
7973000,0.0324,0.013523,0.002678,0.000431,0.002586
7974000,0.0324,0.013523,0.002678,0.000431,0.002351
7975000,0.0324,0.013523,0.002678,0.000431,0.002586
7976000,0.0324,0.013523,0.002678,0.000431,0.002351
7977000,0.0324,0.013523,0.002678,0.000431,0.002821
7978000,0.0324,0.013523,0.002678,0.000431,0.002468
7979000,0.0324,0.013523,0.002678,0.000431,0.002468
7980000,0.0324,0.013523,0.002678,0.000431,0.002703
7981000,0.0324,0.013523,0.002678,0.000431,0.002351
7982000,0.0324,0.013523,0.002678,0.000431,0.002351
7983000,0.0324,0.013523,0.002678,0.000431,0.001998
7984000,0.0324,0.013523,0.002678,0.000431,0.002821
7985000,0.0324,0.013523,0.002678,0.000431,0.002468
7986000,0.0324,0.013523,0.002678,0.000431,0.002468
7987000,0.0324,0.013523,0.002678,0.000431,0.002116
7988000,0.0324,0.013523,0.002678,0.000431,0.002938
7989000,0.0324,0.013523,0.002678,0.000431,0.002116
7990000,0.0324,0.013523,0.002678,0.000431,0.002586
7991000,0.0324,0.013523,0.002678,0.000431,0.002586
7992000,0.0324,0.013523,0.002678,0.000431,0.002468
7993000,0.0324,0.013523,0.002678,0.000431,0.002821
7994000,0.0324,0.013523,0.002678,0.000431,0.002703
7995000,0.0324,0.013523,0.002678,0.000431,0.002938
7996000,0.0324,0.013523,0.002678,0.000431,0.002703
7997000,0.0324,0.013523,0.002678,0.000431,0.002468
7998000,0.0324,0.013523,0.002678,0.000431,0.002233
7999000,0.0324,0.013523,0.002678,0.000431,0.002351
