Cycle,Area(mm^2),PeakDynamic(W),SubthresholdLeakage(W),GateLeakage(W),RunTimeDynamic(W)
2000000,0.0324,0.013523,0.002678,0.000431,0.009755
2001000,0.0324,0.013523,0.002678,0.000431,0.006347
2002000,0.0324,0.013523,0.002678,0.000431,0.007522
2003000,0.0324,0.013523,0.002678,0.000431,0.009872
2004000,0.0324,0.013523,0.002678,0.000431,0.006934
2005000,0.0324,0.013523,0.002678,0.000431,0.007874
2006000,0.0324,0.013523,0.002678,0.000431,0.008932
2007000,0.0324,0.013523,0.002678,0.000431,0.008932
2008000,0.0324,0.013523,0.002678,0.000431,0.008109
2009000,0.0324,0.013523,0.002678,0.000431,0.008227
2010000,0.0324,0.013523,0.002678,0.000431,0.007404
2011000,0.0324,0.013523,0.002678,0.000431,0.008697
2012000,0.0324,0.013523,0.002678,0.000431,0.007052
2013000,0.0324,0.013523,0.002678,0.000431,0.005759
2014000,0.0324,0.013523,0.002678,0.000431,0.008462
2015000,0.0324,0.013523,0.002678,0.000431,0.009050
2016000,0.0324,0.013523,0.002678,0.000431,0.006699
2017000,0.0324,0.013523,0.002678,0.000431,0.007052
2018000,0.0324,0.013523,0.002678,0.000431,0.007522
2019000,0.0324,0.013523,0.002678,0.000431,0.006582
2020000,0.0324,0.013523,0.002678,0.000431,0.007287
2021000,0.0324,0.013523,0.002678,0.000431,0.007287
2022000,0.0324,0.013523,0.002678,0.000431,0.008462
2023000,0.0324,0.013523,0.002678,0.000431,0.008697
2024000,0.0324,0.013523,0.002678,0.000431,0.006582
2025000,0.0324,0.013523,0.002678,0.000431,0.005876
2026000,0.0324,0.013523,0.002678,0.000431,0.008109
2027000,0.0324,0.013523,0.002678,0.000431,0.006582
2028000,0.0324,0.013523,0.002678,0.000431,0.007169
2029000,0.0324,0.013523,0.002678,0.000431,0.008580
2030000,0.0324,0.013523,0.002678,0.000431,0.008462
2031000,0.0324,0.013523,0.002678,0.000431,0.006817
2032000,0.0324,0.013523,0.002678,0.000431,0.006111
2033000,0.0324,0.013523,0.002678,0.000431,0.005054
2034000,0.0324,0.013523,0.002678,0.000431,0.007639
2035000,0.0324,0.013523,0.002678,0.000431,0.005289
2036000,0.0324,0.013523,0.002678,0.000431,0.005406
2037000,0.0324,0.013523,0.002678,0.000431,0.006699
2038000,0.0324,0.013523,0.002678,0.000431,0.007992
2039000,0.0324,0.013523,0.002678,0.000431,0.006111
2040000,0.0324,0.013523,0.002678,0.000431,0.006347
2041000,0.0324,0.013523,0.002678,0.000431,0.005876
2042000,0.0324,0.013523,0.002678,0.000431,0.006582
2043000,0.0324,0.013523,0.002678,0.000431,0.005641
2044000,0.0324,0.013523,0.002678,0.000431,0.005524
2045000,0.0324,0.013523,0.002678,0.000431,0.007404
2046000,0.0324,0.013523,0.002678,0.000431,0.007522
2047000,0.0324,0.013523,0.002678,0.000431,0.005406
2048000,0.0324,0.013523,0.002678,0.000431,0.005759
2049000,0.0324,0.013523,0.002678,0.000431,0.006582
2050000,0.0324,0.013523,0.002678,0.000431,0.005994
2051000,0.0324,0.013523,0.002678,0.000431,0.006464
2052000,0.0324,0.013523,0.002678,0.000431,0.007052
2053000,0.0324,0.013523,0.002678,0.000431,0.006817
2054000,0.0324,0.013523,0.002678,0.000431,0.005759
2055000,0.0324,0.013523,0.002678,0.000431,0.004349
2056000,0.0324,0.013523,0.002678,0.000431,0.004584
2057000,0.0324,0.013523,0.002678,0.000431,0.005994
2058000,0.0324,0.013523,0.002678,0.000431,0.004349
2059000,0.0324,0.013523,0.002678,0.000431,0.005054
2060000,0.0324,0.013523,0.002678,0.000431,0.005641
2061000,0.0324,0.013523,0.002678,0.000431,0.008109
2062000,0.0324,0.013523,0.002678,0.000431,0.004584
2063000,0.0324,0.013523,0.002678,0.000431,0.003761
2064000,0.0324,0.013523,0.002678,0.000431,0.003173
2065000,0.0324,0.013523,0.002678,0.000431,0.004936
2066000,0.0324,0.013523,0.002678,0.000431,0.003408
2067000,0.0324,0.013523,0.002678,0.000431,0.003408
2068000,0.0324,0.013523,0.002678,0.000431,0.005406
2069000,0.0324,0.013523,0.002678,0.000431,0.005289
2070000,0.0324,0.013523,0.002678,0.000431,0.003526
2071000,0.0324,0.013523,0.002678,0.000431,0.004349
2072000,0.0324,0.013523,0.002678,0.000431,0.003526
2073000,0.0324,0.013523,0.002678,0.000431,0.004819
2074000,0.0324,0.013523,0.002678,0.000431,0.003643
2075000,0.0324,0.013523,0.002678,0.000431,0.003291
2076000,0.0324,0.013523,0.002678,0.000431,0.005641
2077000,0.0324,0.013523,0.002678,0.000431,0.004936
2078000,0.0324,0.013523,0.002678,0.000431,0.003408
2079000,0.0324,0.013523,0.002678,0.000431,0.003761
2080000,0.0324,0.013523,0.002678,0.000431,0.005054
2081000,0.0324,0.013523,0.002678,0.000431,0.003173
2082000,0.0324,0.013523,0.002678,0.000431,0.004231
2083000,0.0324,0.013523,0.002678,0.000431,0.003996
2084000,0.0324,0.013523,0.002678,0.000431,0.005406
2085000,0.0324,0.013523,0.002678,0.000431,0.005054
2086000,0.0324,0.013523,0.002678,0.000431,0.003291
2087000,0.0324,0.013523,0.002678,0.000431,0.003291
2088000,0.0324,0.013523,0.002678,0.000431,0.005171
2089000,0.0324,0.013523,0.002678,0.000431,0.003526
2090000,0.0324,0.013523,0.002678,0.000431,0.003173
2091000,0.0324,0.013523,0.002678,0.000431,0.005524
2092000,0.0324,0.013523,0.002678,0.000431,0.005289
2093000,0.0324,0.013523,0.002678,0.000431,0.004113
2094000,0.0324,0.013523,0.002678,0.000431,0.003643
2095000,0.0324,0.013523,0.002678,0.000431,0.003408
2096000,0.0324,0.013523,0.002678,0.000431,0.005406
2097000,0.0324,0.013523,0.002678,0.000431,0.003291
2098000,0.0324,0.013523,0.002678,0.000431,0.003526
2099000,0.0324,0.013523,0.002678,0.000431,0.004936
2100000,0.0324,0.013523,0.002678,0.000431,0.005406
2101000,0.0324,0.013523,0.002678,0.000431,0.003408
2102000,0.0324,0.013523,0.002678,0.000431,0.004349
2103000,0.0324,0.013523,0.002678,0.000431,0.003996
2104000,0.0324,0.013523,0.002678,0.000431,0.004231
2105000,0.0324,0.013523,0.002678,0.000431,0.003996
2106000,0.0324,0.013523,0.002678,0.000431,0.003056
2107000,0.0324,0.013523,0.002678,0.000431,0.005524
2108000,0.0324,0.013523,0.002678,0.000431,0.005289
2109000,0.0324,0.013523,0.002678,0.000431,0.003526
2110000,0.0324,0.013523,0.002678,0.000431,0.003173
2111000,0.0324,0.013523,0.002678,0.000431,0.005406
2112000,0.0324,0.013523,0.002678,0.000431,0.003408
2113000,0.0324,0.013523,0.002678,0.000431,0.003878
2114000,0.0324,0.013523,0.002678,0.000431,0.004466
2115000,0.0324,0.013523,0.002678,0.000431,0.004819
2116000,0.0324,0.013523,0.002678,0.000431,0.005289
2117000,0.0324,0.013523,0.002678,0.000431,0.003173
2118000,0.0324,0.013523,0.002678,0.000431,0.003526
2119000,0.0324,0.013523,0.002678,0.000431,0.005406
2120000,0.0324,0.013523,0.002678,0.000431,0.003408
2121000,0.0324,0.013523,0.002678,0.000431,0.003526
2122000,0.0324,0.013523,0.002678,0.000431,0.004584
2123000,0.0324,0.013523,0.002678,0.000431,0.005759
2124000,0.0324,0.013523,0.002678,0.000431,0.003761
2125000,0.0324,0.013523,0.002678,0.000431,0.004231
2126000,0.0324,0.013523,0.002678,0.000431,0.003173
2127000,0.0324,0.013523,0.002678,0.000431,0.005054
2128000,0.0324,0.013523,0.002678,0.000431,0.003526
2129000,0.0324,0.013523,0.002678,0.000431,0.003526
2130000,0.0324,0.013523,0.002678,0.000431,0.004819
2131000,0.0324,0.013523,0.002678,0.000431,0.005876
2132000,0.0324,0.013523,0.002678,0.000431,0.003291
2133000,0.0324,0.013523,0.002678,0.000431,0.003878
2134000,0.0324,0.013523,0.002678,0.000431,0.004349
2135000,0.0324,0.013523,0.002678,0.000431,0.003643
2136000,0.0324,0.013523,0.002678,0.000431,0.004231
2137000,0.0324,0.013523,0.002678,0.000431,0.003761
2138000,0.0324,0.013523,0.002678,0.000431,0.005406
2139000,0.0324,0.013523,0.002678,0.000431,0.004349
2140000,0.0324,0.013523,0.002678,0.000431,0.002938
2141000,0.0324,0.013523,0.002678,0.000431,0.002938
2142000,0.0324,0.013523,0.002678,0.000431,0.003878
2143000,0.0324,0.013523,0.002678,0.000431,0.003056
2144000,0.0324,0.013523,0.002678,0.000431,0.004113
2145000,0.0324,0.013523,0.002678,0.000431,0.004113
2146000,0.0324,0.013523,0.002678,0.000431,0.004701
2147000,0.0324,0.013523,0.002678,0.000431,0.002586
2148000,0.0324,0.013523,0.002678,0.000431,0.002938
2149000,0.0324,0.013523,0.002678,0.000431,0.004349
2150000,0.0324,0.013523,0.002678,0.000431,0.002938
2151000,0.0324,0.013523,0.002678,0.000431,0.003643
2152000,0.0324,0.013523,0.002678,0.000431,0.004584
2153000,0.0324,0.013523,0.002678,0.000431,0.004231
2154000,0.0324,0.013523,0.002678,0.000431,0.002703
2155000,0.0324,0.013523,0.002678,0.000431,0.003173
2156000,0.0324,0.013523,0.002678,0.000431,0.003996
2157000,0.0324,0.013523,0.002678,0.000431,0.002703
2158000,0.0324,0.013523,0.002678,0.000431,0.004466
2159000,0.0324,0.013523,0.002678,0.000431,0.004231
2160000,0.0324,0.013523,0.002678,0.000431,0.004231
2161000,0.0324,0.013523,0.002678,0.000431,0.003056
2162000,0.0324,0.013523,0.002678,0.000431,0.003056
2163000,0.0324,0.013523,0.002678,0.000431,0.003526
2164000,0.0324,0.013523,0.002678,0.000431,0.003291
2165000,0.0324,0.013523,0.002678,0.000431,0.003996
2166000,0.0324,0.013523,0.002678,0.000431,0.004231
2167000,0.0324,0.013523,0.002678,0.000431,0.004701
2168000,0.0324,0.013523,0.002678,0.000431,0.002821
2169000,0.0324,0.013523,0.002678,0.000431,0.003056
2170000,0.0324,0.013523,0.002678,0.000431,0.003761
2171000,0.0324,0.013523,0.002678,0.000431,0.003056
2172000,0.0324,0.013523,0.002678,0.000431,0.003761
2173000,0.0324,0.013523,0.002678,0.000431,0.004701
2174000,0.0324,0.013523,0.002678,0.000431,0.003996
2175000,0.0324,0.013523,0.002678,0.000431,0.002821
2176000,0.0324,0.013523,0.002678,0.000431,0.003761
2177000,0.0324,0.013523,0.002678,0.000431,0.003291
2178000,0.0324,0.013523,0.002678,0.000431,0.003526
2179000,0.0324,0.013523,0.002678,0.000431,0.003643
2180000,0.0324,0.013523,0.002678,0.000431,0.003643
2181000,0.0324,0.013523,0.002678,0.000431,0.004701
2182000,0.0324,0.013523,0.002678,0.000431,0.003173
2183000,0.0324,0.013523,0.002678,0.000431,0.003526
2184000,0.0324,0.013523,0.002678,0.000431,0.003173
2185000,0.0324,0.013523,0.002678,0.000431,0.003761
2186000,0.0324,0.013523,0.002678,0.000431,0.003291
2187000,0.0324,0.013523,0.002678,0.000431,0.004231
2188000,0.0324,0.013523,0.002678,0.000431,0.004466
2189000,0.0324,0.013523,0.002678,0.000431,0.003291
2190000,0.0324,0.013523,0.002678,0.000431,0.003526
2191000,0.0324,0.013523,0.002678,0.000431,0.003056
2192000,0.0324,0.013523,0.002678,0.000431,0.003643
2193000,0.0324,0.013523,0.002678,0.000431,0.003173
2194000,0.0324,0.013523,0.002678,0.000431,0.004701
2195000,0.0324,0.013523,0.002678,0.000431,0.004231
2196000,0.0324,0.013523,0.002678,0.000431,0.003526
2197000,0.0324,0.013523,0.002678,0.000431,0.003291
2198000,0.0324,0.013523,0.002678,0.000431,0.002351
2199000,0.0324,0.013523,0.002678,0.000431,0.004466
2200000,0.0324,0.013523,0.002678,0.000431,0.003173
2201000,0.0324,0.013523,0.002678,0.000431,0.004349
2202000,0.0324,0.013523,0.002678,0.000431,0.004231
2203000,0.0324,0.013523,0.002678,0.000431,0.003761
2204000,0.0324,0.013523,0.002678,0.000431,0.003056
2205000,0.0324,0.013523,0.002678,0.000431,0.002821
2206000,0.0324,0.013523,0.002678,0.000431,0.004466
2207000,0.0324,0.013523,0.002678,0.000431,0.002703
2208000,0.0324,0.013523,0.002678,0.000431,0.004349
2209000,0.0324,0.013523,0.002678,0.000431,0.004466
2210000,0.0324,0.013523,0.002678,0.000431,0.003643
2211000,0.0324,0.013523,0.002678,0.000431,0.003291
2212000,0.0324,0.013523,0.002678,0.000431,0.002938
2213000,0.0324,0.013523,0.002678,0.000431,0.003996
2214000,0.0324,0.013523,0.002678,0.000431,0.002821
2215000,0.0324,0.013523,0.002678,0.000431,0.004466
2216000,0.0324,0.013523,0.002678,0.000431,0.003761
2217000,0.0324,0.013523,0.002678,0.000431,0.004466
2218000,0.0324,0.013523,0.002678,0.000431,0.003291
2219000,0.0324,0.013523,0.002678,0.000431,0.002586
2220000,0.0324,0.013523,0.002678,0.000431,0.004113
2221000,0.0324,0.013523,0.002678,0.000431,0.002938
2222000,0.0324,0.013523,0.002678,0.000431,0.004231
2223000,0.0324,0.013523,0.002678,0.000431,0.004231
2224000,0.0324,0.013523,0.002678,0.000431,0.003996
2225000,0.0324,0.013523,0.002678,0.000431,0.002821
2226000,0.0324,0.013523,0.002678,0.000431,0.002821
2227000,0.0324,0.013523,0.002678,0.000431,0.004466
2228000,0.0324,0.013523,0.002678,0.000431,0.002821
2229000,0.0324,0.013523,0.002678,0.000431,0.004231
2230000,0.0324,0.013523,0.002678,0.000431,0.004701
2231000,0.0324,0.013523,0.002678,0.000431,0.003996
2232000,0.0324,0.013523,0.002678,0.000431,0.002586
2233000,0.0324,0.013523,0.002678,0.000431,0.003056
2234000,0.0324,0.013523,0.002678,0.000431,0.003761
2235000,0.0324,0.013523,0.002678,0.000431,0.003056
2236000,0.0324,0.013523,0.002678,0.000431,0.004701
2237000,0.0324,0.013523,0.002678,0.000431,0.004113
2238000,0.0324,0.013523,0.002678,0.000431,0.004231
2239000,0.0324,0.013523,0.002678,0.000431,0.002586
2240000,0.0324,0.013523,0.002678,0.000431,0.003056
2241000,0.0324,0.013523,0.002678,0.000431,0.004113
2242000,0.0324,0.013523,0.002678,0.000431,0.003056
2243000,0.0324,0.013523,0.002678,0.000431,0.003761
2244000,0.0324,0.013523,0.002678,0.000431,0.004466
2245000,0.0324,0.013523,0.002678,0.000431,0.004231
2246000,0.0324,0.013523,0.002678,0.000431,0.003056
2247000,0.0324,0.013523,0.002678,0.000431,0.002821
2248000,0.0324,0.013523,0.002678,0.000431,0.004466
2249000,0.0324,0.013523,0.002678,0.000431,0.002468
2250000,0.0324,0.013523,0.002678,0.000431,0.004113
2251000,0.0324,0.013523,0.002678,0.000431,0.005406
2252000,0.0324,0.013523,0.002678,0.000431,0.003173
2253000,0.0324,0.013523,0.002678,0.000431,0.001880
2254000,0.0324,0.013523,0.002678,0.000431,0.002116
2255000,0.0324,0.013523,0.002678,0.000431,0.002586
2256000,0.0324,0.013523,0.002678,0.000431,0.002116
2257000,0.0324,0.013523,0.002678,0.000431,0.002938
2258000,0.0324,0.013523,0.002678,0.000431,0.003173
2259000,0.0324,0.013523,0.002678,0.000431,0.003526
2260000,0.0324,0.013523,0.002678,0.000431,0.001880
2261000,0.0324,0.013523,0.002678,0.000431,0.002116
2262000,0.0324,0.013523,0.002678,0.000431,0.002586
2263000,0.0324,0.013523,0.002678,0.000431,0.002116
2264000,0.0324,0.013523,0.002678,0.000431,0.002938
2265000,0.0324,0.013523,0.002678,0.000431,0.003173
2266000,0.0324,0.013523,0.002678,0.000431,0.003173
2267000,0.0324,0.013523,0.002678,0.000431,0.001763
2268000,0.0324,0.013523,0.002678,0.000431,0.002586
2269000,0.0324,0.013523,0.002678,0.000431,0.002233
2270000,0.0324,0.013523,0.002678,0.000431,0.002468
2271000,0.0324,0.013523,0.002678,0.000431,0.002586
2272000,0.0324,0.013523,0.002678,0.000431,0.002821
2273000,0.0324,0.013523,0.002678,0.000431,0.003526
2274000,0.0324,0.013523,0.002678,0.000431,0.002116
2275000,0.0324,0.013523,0.002678,0.000431,0.002468
2276000,0.0324,0.013523,0.002678,0.000431,0.001998
2277000,0.0324,0.013523,0.002678,0.000431,0.002821
2278000,0.0324,0.013523,0.002678,0.000431,0.002233
2279000,0.0324,0.013523,0.002678,0.000431,0.003173
2280000,0.0324,0.013523,0.002678,0.000431,0.003526
2281000,0.0324,0.013523,0.002678,0.000431,0.002116
2282000,0.0324,0.013523,0.002678,0.000431,0.002351
2283000,0.0324,0.013523,0.002678,0.000431,0.002116
2284000,0.0324,0.013523,0.002678,0.000431,0.002703
2285000,0.0324,0.013523,0.002678,0.000431,0.001998
2286000,0.0324,0.013523,0.002678,0.000431,0.003526
2287000,0.0324,0.013523,0.002678,0.000431,0.003173
2288000,0.0324,0.013523,0.002678,0.000431,0.002468
2289000,0.0324,0.013523,0.002678,0.000431,0.002351
2290000,0.0324,0.013523,0.002678,0.000431,0.001410
2291000,0.0324,0.013523,0.002678,0.000431,0.003291
2292000,0.0324,0.013523,0.002678,0.000431,0.002116
2293000,0.0324,0.013523,0.002678,0.000431,0.003173
2294000,0.0324,0.013523,0.002678,0.000431,0.003173
2295000,0.0324,0.013523,0.002678,0.000431,0.002703
2296000,0.0324,0.013523,0.002678,0.000431,0.002116
2297000,0.0324,0.013523,0.002678,0.000431,0.001763
2298000,0.0324,0.013523,0.002678,0.000431,0.002938
2299000,0.0324,0.013523,0.002678,0.000431,0.001763
2300000,0.0324,0.013523,0.002678,0.000431,0.003526
2301000,0.0324,0.013523,0.002678,0.000431,0.003173
2302000,0.0324,0.013523,0.002678,0.000431,0.002938
2303000,0.0324,0.013523,0.002678,0.000431,0.002116
2304000,0.0324,0.013523,0.002678,0.000431,0.001880
2305000,0.0324,0.013523,0.002678,0.000431,0.002938
2306000,0.0324,0.013523,0.002678,0.000431,0.001763
2307000,0.0324,0.013523,0.002678,0.000431,0.003173
2308000,0.0324,0.013523,0.002678,0.000431,0.003173
2309000,0.0324,0.013523,0.002678,0.000431,0.003291
2310000,0.0324,0.013523,0.002678,0.000431,0.001763
2311000,0.0324,0.013523,0.002678,0.000431,0.001880
2312000,0.0324,0.013523,0.002678,0.000431,0.003173
2313000,0.0324,0.013523,0.002678,0.000431,0.001880
2314000,0.0324,0.013523,0.002678,0.000431,0.002821
2315000,0.0324,0.013523,0.002678,0.000431,0.003526
2316000,0.0324,0.013523,0.002678,0.000431,0.002938
2317000,0.0324,0.013523,0.002678,0.000431,0.001763
2318000,0.0324,0.013523,0.002678,0.000431,0.001880
2319000,0.0324,0.013523,0.002678,0.000431,0.003173
2320000,0.0324,0.013523,0.002678,0.000431,0.001880
2321000,0.0324,0.013523,0.002678,0.000431,0.003173
2322000,0.0324,0.013523,0.002678,0.000431,0.003526
2323000,0.0324,0.013523,0.002678,0.000431,0.002938
2324000,0.0324,0.013523,0.002678,0.000431,0.001763
2325000,0.0324,0.013523,0.002678,0.000431,0.001880
2326000,0.0324,0.013523,0.002678,0.000431,0.002821
2327000,0.0324,0.013523,0.002678,0.000431,0.001880
2328000,0.0324,0.013523,0.002678,0.000431,0.003173
2329000,0.0324,0.013523,0.002678,0.000431,0.003173
2330000,0.0324,0.013523,0.002678,0.000431,0.003526
2331000,0.0324,0.013523,0.002678,0.000431,0.001528
2332000,0.0324,0.013523,0.002678,0.000431,0.001880
2333000,0.0324,0.013523,0.002678,0.000431,0.003173
2334000,0.0324,0.013523,0.002678,0.000431,0.001880
2335000,0.0324,0.013523,0.002678,0.000431,0.002821
2336000,0.0324,0.013523,0.002678,0.000431,0.003526
2337000,0.0324,0.013523,0.002678,0.000431,0.002821
2338000,0.0324,0.013523,0.002678,0.000431,0.001880
2339000,0.0324,0.013523,0.002678,0.000431,0.002116
2340000,0.0324,0.013523,0.002678,0.000431,0.002938
2341000,0.0324,0.013523,0.002678,0.000431,0.001763
2342000,0.0324,0.013523,0.002678,0.000431,0.003291
2343000,0.0324,0.013523,0.002678,0.000431,0.003173
2344000,0.0324,0.013523,0.002678,0.000431,0.003173
2345000,0.0324,0.013523,0.002678,0.000431,0.001880
2346000,0.0324,0.013523,0.002678,0.000431,0.002116
2347000,0.0324,0.013523,0.002678,0.000431,0.002586
2348000,0.0324,0.013523,0.002678,0.000431,0.002116
2349000,0.0324,0.013523,0.002678,0.000431,0.002938
2350000,0.0324,0.013523,0.002678,0.000431,0.003173
2351000,0.0324,0.013523,0.002678,0.000431,0.003526
2352000,0.0324,0.013523,0.002678,0.000431,0.001880
2353000,0.0324,0.013523,0.002678,0.000431,0.002116
2354000,0.0324,0.013523,0.002678,0.000431,0.002586
2355000,0.0324,0.013523,0.002678,0.000431,0.002116
2356000,0.0324,0.013523,0.002678,0.000431,0.002586
2357000,0.0324,0.013523,0.002678,0.000431,0.003173
2358000,0.0324,0.013523,0.002678,0.000431,0.003526
2359000,0.0324,0.013523,0.002678,0.000431,0.001763
2360000,0.0324,0.013523,0.002678,0.000431,0.002468
2361000,0.0324,0.013523,0.002678,0.000431,0.002351
2362000,0.0324,0.013523,0.002678,0.000431,0.002468
2363000,0.0324,0.013523,0.002678,0.000431,0.002586
2364000,0.0324,0.013523,0.002678,0.000431,0.002821
2365000,0.0324,0.013523,0.002678,0.000431,0.003526
2366000,0.0324,0.013523,0.002678,0.000431,0.002116
2367000,0.0324,0.013523,0.002678,0.000431,0.002351
2368000,0.0324,0.013523,0.002678,0.000431,0.002116
2369000,0.0324,0.013523,0.002678,0.000431,0.002703
2370000,0.0324,0.013523,0.002678,0.000431,0.002351
2371000,0.0324,0.013523,0.002678,0.000431,0.003173
2372000,0.0324,0.013523,0.002678,0.000431,0.003526
2373000,0.0324,0.013523,0.002678,0.000431,0.002116
2374000,0.0324,0.013523,0.002678,0.000431,0.002351
2375000,0.0324,0.013523,0.002678,0.000431,0.002116
2376000,0.0324,0.013523,0.002678,0.000431,0.002703
2377000,0.0324,0.013523,0.002678,0.000431,0.001998
2378000,0.0324,0.013523,0.002678,0.000431,0.003526
2379000,0.0324,0.013523,0.002678,0.000431,0.003173
2380000,0.0324,0.013523,0.002678,0.000431,0.002468
2381000,0.0324,0.013523,0.002678,0.000431,0.001998
2382000,0.0324,0.013523,0.002678,0.000431,0.001763
2383000,0.0324,0.013523,0.002678,0.000431,0.003291
2384000,0.0324,0.013523,0.002678,0.000431,0.001763
2385000,0.0324,0.013523,0.002678,0.000431,0.003526
2386000,0.0324,0.013523,0.002678,0.000431,0.003173
2387000,0.0324,0.013523,0.002678,0.000431,0.002703
2388000,0.0324,0.013523,0.002678,0.000431,0.002116
2389000,0.0324,0.013523,0.002678,0.000431,0.001763
2390000,0.0324,0.013523,0.002678,0.000431,0.002938
2391000,0.0324,0.013523,0.002678,0.000431,0.001763
2392000,0.0324,0.013523,0.002678,0.000431,0.003526
2393000,0.0324,0.013523,0.002678,0.000431,0.003173
2394000,0.0324,0.013523,0.002678,0.000431,0.002938
2395000,0.0324,0.013523,0.002678,0.000431,0.002116
2396000,0.0324,0.013523,0.002678,0.000431,0.001880
2397000,0.0324,0.013523,0.002678,0.000431,0.002938
2398000,0.0324,0.013523,0.002678,0.000431,0.001763
2399000,0.0324,0.013523,0.002678,0.000431,0.003173
2400000,0.0324,0.013523,0.002678,0.000431,0.001880
2401000,0.0324,0.013523,0.002678,0.000431,0.002233
2402000,0.0324,0.013523,0.002678,0.000431,0.001293
2403000,0.0324,0.013523,0.002678,0.000431,0.001410
2404000,0.0324,0.013523,0.002678,0.000431,0.002116
2405000,0.0324,0.013523,0.002678,0.000431,0.002351
2406000,0.0324,0.013523,0.002678,0.000431,0.002116
2407000,0.0324,0.013523,0.002678,0.000431,0.002116
2408000,0.0324,0.013523,0.002678,0.000431,0.001410
2409000,0.0324,0.013523,0.002678,0.000431,0.001528
2410000,0.0324,0.013523,0.002678,0.000431,0.001763
2411000,0.0324,0.013523,0.002678,0.000431,0.002116
2412000,0.0324,0.013523,0.002678,0.000431,0.002351
2413000,0.0324,0.013523,0.002678,0.000431,0.002116
2414000,0.0324,0.013523,0.002678,0.000431,0.001880
2415000,0.0324,0.013523,0.002678,0.000431,0.001528
2416000,0.0324,0.013523,0.002678,0.000431,0.001293
2417000,0.0324,0.013523,0.002678,0.000431,0.002351
2418000,0.0324,0.013523,0.002678,0.000431,0.001880
2419000,0.0324,0.013523,0.002678,0.000431,0.002351
2420000,0.0324,0.013523,0.002678,0.000431,0.002116
2421000,0.0324,0.013523,0.002678,0.000431,0.001410
2422000,0.0324,0.013523,0.002678,0.000431,0.001293
2423000,0.0324,0.013523,0.002678,0.000431,0.002233
2424000,0.0324,0.013523,0.002678,0.000431,0.002116
2425000,0.0324,0.013523,0.002678,0.000431,0.002116
2426000,0.0324,0.013523,0.002678,0.000431,0.002351
2427000,0.0324,0.013523,0.002678,0.000431,0.001528
2428000,0.0324,0.013523,0.002678,0.000431,0.001645
2429000,0.0324,0.013523,0.002678,0.000431,0.001528
2430000,0.0324,0.013523,0.002678,0.000431,0.002116
2431000,0.0324,0.013523,0.002678,0.000431,0.002116
2432000,0.0324,0.013523,0.002678,0.000431,0.002351
2433000,0.0324,0.013523,0.002678,0.000431,0.001998
2434000,0.0324,0.013523,0.002678,0.000431,0.001293
2435000,0.0324,0.013523,0.002678,0.000431,0.001410
2436000,0.0324,0.013523,0.002678,0.000431,0.001880
2437000,0.0324,0.013523,0.002678,0.000431,0.002351
2438000,0.0324,0.013523,0.002678,0.000431,0.002116
2439000,0.0324,0.013523,0.002678,0.000431,0.002351
2440000,0.0324,0.013523,0.002678,0.000431,0.001293
2441000,0.0324,0.013523,0.002678,0.000431,0.001763
2442000,0.0324,0.013523,0.002678,0.000431,0.001645
2443000,0.0324,0.013523,0.002678,0.000431,0.002116
2444000,0.0324,0.013523,0.002678,0.000431,0.002233
2445000,0.0324,0.013523,0.002678,0.000431,0.001998
2446000,0.0324,0.013523,0.002678,0.000431,0.002233
2447000,0.0324,0.013523,0.002678,0.000431,0.001293
2448000,0.0324,0.013523,0.002678,0.000431,0.001410
2449000,0.0324,0.013523,0.002678,0.000431,0.002116
2450000,0.0324,0.013523,0.002678,0.000431,0.002351
2451000,0.0324,0.013523,0.002678,0.000431,0.002116
2452000,0.0324,0.013523,0.002678,0.000431,0.002116
2453000,0.0324,0.013523,0.002678,0.000431,0.001410
2454000,0.0324,0.013523,0.002678,0.000431,0.001528
2455000,0.0324,0.013523,0.002678,0.000431,0.001763
2456000,0.0324,0.013523,0.002678,0.000431,0.002116
2457000,0.0324,0.013523,0.002678,0.000431,0.002351
2458000,0.0324,0.013523,0.002678,0.000431,0.002116
2459000,0.0324,0.013523,0.002678,0.000431,0.001880
2460000,0.0324,0.013523,0.002678,0.000431,0.001528
2461000,0.0324,0.013523,0.002678,0.000431,0.001293
2462000,0.0324,0.013523,0.002678,0.000431,0.002351
2463000,0.0324,0.013523,0.002678,0.000431,0.001880
2464000,0.0324,0.013523,0.002678,0.000431,0.002351
2465000,0.0324,0.013523,0.002678,0.000431,0.002116
2466000,0.0324,0.013523,0.002678,0.000431,0.001410
2467000,0.0324,0.013523,0.002678,0.000431,0.001293
2468000,0.0324,0.013523,0.002678,0.000431,0.002233
2469000,0.0324,0.013523,0.002678,0.000431,0.002116
2470000,0.0324,0.013523,0.002678,0.000431,0.002116
2471000,0.0324,0.013523,0.002678,0.000431,0.002116
2472000,0.0324,0.013523,0.002678,0.000431,0.001763
2473000,0.0324,0.013523,0.002678,0.000431,0.001645
2474000,0.0324,0.013523,0.002678,0.000431,0.001528
2475000,0.0324,0.013523,0.002678,0.000431,0.002116
2476000,0.0324,0.013523,0.002678,0.000431,0.002116
2477000,0.0324,0.013523,0.002678,0.000431,0.002351
2478000,0.0324,0.013523,0.002678,0.000431,0.001998
2479000,0.0324,0.013523,0.002678,0.000431,0.001293
2480000,0.0324,0.013523,0.002678,0.000431,0.001410
2481000,0.0324,0.013523,0.002678,0.000431,0.001880
2482000,0.0324,0.013523,0.002678,0.000431,0.002351
2483000,0.0324,0.013523,0.002678,0.000431,0.002233
2484000,0.0324,0.013523,0.002678,0.000431,0.002233
2485000,0.0324,0.013523,0.002678,0.000431,0.001293
2486000,0.0324,0.013523,0.002678,0.000431,0.001763
2487000,0.0324,0.013523,0.002678,0.000431,0.001645
2488000,0.0324,0.013523,0.002678,0.000431,0.002116
2489000,0.0324,0.013523,0.002678,0.000431,0.002351
2490000,0.0324,0.013523,0.002678,0.000431,0.001880
2491000,0.0324,0.013523,0.002678,0.000431,0.002233
2492000,0.0324,0.013523,0.002678,0.000431,0.001410
2493000,0.0324,0.013523,0.002678,0.000431,0.001293
2494000,0.0324,0.013523,0.002678,0.000431,0.002116
2495000,0.0324,0.013523,0.002678,0.000431,0.002351
2496000,0.0324,0.013523,0.002678,0.000431,0.002116
2497000,0.0324,0.013523,0.002678,0.000431,0.002116
2498000,0.0324,0.013523,0.002678,0.000431,0.001410
2499000,0.0324,0.013523,0.002678,0.000431,0.001528
2500000,0.0324,0.013523,0.002678,0.000431,0.001763
2501000,0.0324,0.013523,0.002678,0.000431,0.002351
2502000,0.0324,0.013523,0.002678,0.000431,0.002116
2503000,0.0324,0.013523,0.002678,0.000431,0.002116
2504000,0.0324,0.013523,0.002678,0.000431,0.001998
2505000,0.0324,0.013523,0.002678,0.000431,0.001410
2506000,0.0324,0.013523,0.002678,0.000431,0.001293
2507000,0.0324,0.013523,0.002678,0.000431,0.002351
2508000,0.0324,0.013523,0.002678,0.000431,0.002116
2509000,0.0324,0.013523,0.002678,0.000431,0.002116
2510000,0.0324,0.013523,0.002678,0.000431,0.002351
2511000,0.0324,0.013523,0.002678,0.000431,0.001175
2512000,0.0324,0.013523,0.002678,0.000431,0.001293
2513000,0.0324,0.013523,0.002678,0.000431,0.002233
2514000,0.0324,0.013523,0.002678,0.000431,0.002116
2515000,0.0324,0.013523,0.002678,0.000431,0.002116
2516000,0.0324,0.013523,0.002678,0.000431,0.002351
2517000,0.0324,0.013523,0.002678,0.000431,0.001528
2518000,0.0324,0.013523,0.002678,0.000431,0.001645
2519000,0.0324,0.013523,0.002678,0.000431,0.001528
2520000,0.0324,0.013523,0.002678,0.000431,0.002116
2521000,0.0324,0.013523,0.002678,0.000431,0.002116
2522000,0.0324,0.013523,0.002678,0.000431,0.002351
2523000,0.0324,0.013523,0.002678,0.000431,0.001998
2524000,0.0324,0.013523,0.002678,0.000431,0.001293
2525000,0.0324,0.013523,0.002678,0.000431,0.001410
2526000,0.0324,0.013523,0.002678,0.000431,0.002116
2527000,0.0324,0.013523,0.002678,0.000431,0.002351
2528000,0.0324,0.013523,0.002678,0.000431,0.002116
2529000,0.0324,0.013523,0.002678,0.000431,0.002116
2530000,0.0324,0.013523,0.002678,0.000431,0.001410
2531000,0.0324,0.013523,0.002678,0.000431,0.001763
2532000,0.0324,0.013523,0.002678,0.000431,0.001763
2533000,0.0324,0.013523,0.002678,0.000431,0.001880
2534000,0.0324,0.013523,0.002678,0.000431,0.002351
2535000,0.0324,0.013523,0.002678,0.000431,0.002116
2536000,0.0324,0.013523,0.002678,0.000431,0.001998
2537000,0.0324,0.013523,0.002678,0.000431,0.001528
2538000,0.0324,0.013523,0.002678,0.000431,0.001410
2539000,0.0324,0.013523,0.002678,0.000431,0.001880
2540000,0.0324,0.013523,0.002678,0.000431,0.002351
2541000,0.0324,0.013523,0.002678,0.000431,0.002116
2542000,0.0324,0.013523,0.002678,0.000431,0.002116
2543000,0.0324,0.013523,0.002678,0.000431,0.001410
2544000,0.0324,0.013523,0.002678,0.000431,0.001528
2545000,0.0324,0.013523,0.002678,0.000431,0.001998
2546000,0.0324,0.013523,0.002678,0.000431,0.002116
2547000,0.0324,0.013523,0.002678,0.000431,0.002351
2548000,0.0324,0.013523,0.002678,0.000431,0.001880
2549000,0.0324,0.013523,0.002678,0.000431,0.001998
2550000,0.0324,0.013523,0.002678,0.000431,0.001410
2551000,0.0324,0.013523,0.002678,0.000431,0.001293
2552000,0.0324,0.013523,0.002678,0.000431,0.002351
2553000,0.0324,0.013523,0.002678,0.000431,0.002116
2554000,0.0324,0.013523,0.002678,0.000431,0.002351
2555000,0.0324,0.013523,0.002678,0.000431,0.002116
2556000,0.0324,0.013523,0.002678,0.000431,0.001410
2557000,0.0324,0.013523,0.002678,0.000431,0.001410
2558000,0.0324,0.013523,0.002678,0.000431,0.001880
2559000,0.0324,0.013523,0.002678,0.000431,0.002351
2560000,0.0324,0.013523,0.002678,0.000431,0.001880
2561000,0.0324,0.013523,0.002678,0.000431,0.002351
2562000,0.0324,0.013523,0.002678,0.000431,0.001528
2563000,0.0324,0.013523,0.002678,0.000431,0.001645
2564000,0.0324,0.013523,0.002678,0.000431,0.001528
2565000,0.0324,0.013523,0.002678,0.000431,0.002351
2566000,0.0324,0.013523,0.002678,0.000431,0.002116
2567000,0.0324,0.013523,0.002678,0.000431,0.002116
2568000,0.0324,0.013523,0.002678,0.000431,0.001998
2569000,0.0324,0.013523,0.002678,0.000431,0.001293
2570000,0.0324,0.013523,0.002678,0.000431,0.001410
2571000,0.0324,0.013523,0.002678,0.000431,0.002116
2572000,0.0324,0.013523,0.002678,0.000431,0.002351
2573000,0.0324,0.013523,0.002678,0.000431,0.002116
2574000,0.0324,0.013523,0.002678,0.000431,0.002351
2575000,0.0324,0.013523,0.002678,0.000431,0.001410
2576000,0.0324,0.013523,0.002678,0.000431,0.001528
2577000,0.0324,0.013523,0.002678,0.000431,0.001763
2578000,0.0324,0.013523,0.002678,0.000431,0.001880
2579000,0.0324,0.013523,0.002678,0.000431,0.002351
2580000,0.0324,0.013523,0.002678,0.000431,0.002116
2581000,0.0324,0.013523,0.002678,0.000431,0.001998
2582000,0.0324,0.013523,0.002678,0.000431,0.001645
2583000,0.0324,0.013523,0.002678,0.000431,0.001293
2584000,0.0324,0.013523,0.002678,0.000431,0.002116
2585000,0.0324,0.013523,0.002678,0.000431,0.002116
2586000,0.0324,0.013523,0.002678,0.000431,0.002351
2587000,0.0324,0.013523,0.002678,0.000431,0.001880
2588000,0.0324,0.013523,0.002678,0.000431,0.001410
2589000,0.0324,0.013523,0.002678,0.000431,0.001528
2590000,0.0324,0.013523,0.002678,0.000431,0.001998
2591000,0.0324,0.013523,0.002678,0.000431,0.002116
2592000,0.0324,0.013523,0.002678,0.000431,0.002351
2593000,0.0324,0.013523,0.002678,0.000431,0.002116
2594000,0.0324,0.013523,0.002678,0.000431,0.001763
2595000,0.0324,0.013523,0.002678,0.000431,0.001645
2596000,0.0324,0.013523,0.002678,0.000431,0.001175
2597000,0.0324,0.013523,0.002678,0.000431,0.002233
2598000,0.0324,0.013523,0.002678,0.000431,0.002351
2599000,0.0324,0.013523,0.002678,0.000431,0.002116
2600000,0.0324,0.013523,0.002678,0.000431,0.002233
2601000,0.0324,0.013523,0.002678,0.000431,0.001293
2602000,0.0324,0.013523,0.002678,0.000431,0.001410
2603000,0.0324,0.013523,0.002678,0.000431,0.001880
2604000,0.0324,0.013523,0.002678,0.000431,0.002351
2605000,0.0324,0.013523,0.002678,0.000431,0.001880
2606000,0.0324,0.013523,0.002678,0.000431,0.002351
2607000,0.0324,0.013523,0.002678,0.000431,0.001528
2608000,0.0324,0.013523,0.002678,0.000431,0.001763
2609000,0.0324,0.013523,0.002678,0.000431,0.001410
2610000,0.0324,0.013523,0.002678,0.000431,0.002351
2611000,0.0324,0.013523,0.002678,0.000431,0.002116
2612000,0.0324,0.013523,0.002678,0.000431,0.002116
2613000,0.0324,0.013523,0.002678,0.000431,0.002233
2614000,0.0324,0.013523,0.002678,0.000431,0.001293
2615000,0.0324,0.013523,0.002678,0.000431,0.001410
2616000,0.0324,0.013523,0.002678,0.000431,0.002116
2617000,0.0324,0.013523,0.002678,0.000431,0.002351
2618000,0.0324,0.013523,0.002678,0.000431,0.001880
2619000,0.0324,0.013523,0.002678,0.000431,0.002351
2620000,0.0324,0.013523,0.002678,0.000431,0.001410
2621000,0.0324,0.013523,0.002678,0.000431,0.001528
2622000,0.0324,0.013523,0.002678,0.000431,0.001763
2623000,0.0324,0.013523,0.002678,0.000431,0.002116
2624000,0.0324,0.013523,0.002678,0.000431,0.002351
2625000,0.0324,0.013523,0.002678,0.000431,0.002116
2626000,0.0324,0.013523,0.002678,0.000431,0.001880
2627000,0.0324,0.013523,0.002678,0.000431,0.001528
2628000,0.0324,0.013523,0.002678,0.000431,0.001293
2629000,0.0324,0.013523,0.002678,0.000431,0.002351
2630000,0.0324,0.013523,0.002678,0.000431,0.001880
2631000,0.0324,0.013523,0.002678,0.000431,0.002351
2632000,0.0324,0.013523,0.002678,0.000431,0.002116
2633000,0.0324,0.013523,0.002678,0.000431,0.001410
2634000,0.0324,0.013523,0.002678,0.000431,0.001293
2635000,0.0324,0.013523,0.002678,0.000431,0.002233
2636000,0.0324,0.013523,0.002678,0.000431,0.002116
2637000,0.0324,0.013523,0.002678,0.000431,0.002116
2638000,0.0324,0.013523,0.002678,0.000431,0.002351
2639000,0.0324,0.013523,0.002678,0.000431,0.001528
2640000,0.0324,0.013523,0.002678,0.000431,0.001645
2641000,0.0324,0.013523,0.002678,0.000431,0.001528
2642000,0.0324,0.013523,0.002678,0.000431,0.002116
2643000,0.0324,0.013523,0.002678,0.000431,0.002116
2644000,0.0324,0.013523,0.002678,0.000431,0.002351
2645000,0.0324,0.013523,0.002678,0.000431,0.001998
2646000,0.0324,0.013523,0.002678,0.000431,0.001293
2647000,0.0324,0.013523,0.002678,0.000431,0.001410
2648000,0.0324,0.013523,0.002678,0.000431,0.001880
2649000,0.0324,0.013523,0.002678,0.000431,0.002351
2650000,0.0324,0.013523,0.002678,0.000431,0.002351
2651000,0.0324,0.013523,0.002678,0.000431,0.002116
2652000,0.0324,0.013523,0.002678,0.000431,0.001293
2653000,0.0324,0.013523,0.002678,0.000431,0.001880
2654000,0.0324,0.013523,0.002678,0.000431,0.001528
2655000,0.0324,0.013523,0.002678,0.000431,0.002116
2656000,0.0324,0.013523,0.002678,0.000431,0.002351
2657000,0.0324,0.013523,0.002678,0.000431,0.001880
2658000,0.0324,0.013523,0.002678,0.000431,0.002233
2659000,0.0324,0.013523,0.002678,0.000431,0.001528
2660000,0.0324,0.013523,0.002678,0.000431,0.001175
2661000,0.0324,0.013523,0.002678,0.000431,0.002116
2662000,0.0324,0.013523,0.002678,0.000431,0.002351
2663000,0.0324,0.013523,0.002678,0.000431,0.002116
2664000,0.0324,0.013523,0.002678,0.000431,0.002116
2665000,0.0324,0.013523,0.002678,0.000431,0.001410
2666000,0.0324,0.013523,0.002678,0.000431,0.001528
2667000,0.0324,0.013523,0.002678,0.000431,0.001998
2668000,0.0324,0.013523,0.002678,0.000431,0.002116
2669000,0.0324,0.013523,0.002678,0.000431,0.002116
2670000,0.0324,0.013523,0.002678,0.000431,0.002116
2671000,0.0324,0.013523,0.002678,0.000431,0.001998
2672000,0.0324,0.013523,0.002678,0.000431,0.001410
2673000,0.0324,0.013523,0.002678,0.000431,0.001293
2674000,0.0324,0.013523,0.002678,0.000431,0.002351
2675000,0.0324,0.013523,0.002678,0.000431,0.002116
2676000,0.0324,0.013523,0.002678,0.000431,0.002351
2677000,0.0324,0.013523,0.002678,0.000431,0.002116
2678000,0.0324,0.013523,0.002678,0.000431,0.001410
2679000,0.0324,0.013523,0.002678,0.000431,0.001410
2680000,0.0324,0.013523,0.002678,0.000431,0.001880
2681000,0.0324,0.013523,0.002678,0.000431,0.002116
2682000,0.0324,0.013523,0.002678,0.000431,0.002116
2683000,0.0324,0.013523,0.002678,0.000431,0.002351
2684000,0.0324,0.013523,0.002678,0.000431,0.001528
2685000,0.0324,0.013523,0.002678,0.000431,0.001645
2686000,0.0324,0.013523,0.002678,0.000431,0.001528
2687000,0.0324,0.013523,0.002678,0.000431,0.002351
2688000,0.0324,0.013523,0.002678,0.000431,0.002116
2689000,0.0324,0.013523,0.002678,0.000431,0.002116
2690000,0.0324,0.013523,0.002678,0.000431,0.001998
2691000,0.0324,0.013523,0.002678,0.000431,0.001293
2692000,0.0324,0.013523,0.002678,0.000431,0.001410
2693000,0.0324,0.013523,0.002678,0.000431,0.002116
2694000,0.0324,0.013523,0.002678,0.000431,0.002351
2695000,0.0324,0.013523,0.002678,0.000431,0.002116
2696000,0.0324,0.013523,0.002678,0.000431,0.002351
2697000,0.0324,0.013523,0.002678,0.000431,0.001410
2698000,0.0324,0.013523,0.002678,0.000431,0.001528
2699000,0.0324,0.013523,0.002678,0.000431,0.001763
2700000,0.0324,0.013523,0.002678,0.000431,0.001880
2701000,0.0324,0.013523,0.002678,0.000431,0.002351
2702000,0.0324,0.013523,0.002678,0.000431,0.002116
2703000,0.0324,0.013523,0.002678,0.000431,0.001998
2704000,0.0324,0.013523,0.002678,0.000431,0.001645
2705000,0.0324,0.013523,0.002678,0.000431,0.001293
2706000,0.0324,0.013523,0.002678,0.000431,0.002116
2707000,0.0324,0.013523,0.002678,0.000431,0.002116
2708000,0.0324,0.013523,0.002678,0.000431,0.002351
2709000,0.0324,0.013523,0.002678,0.000431,0.001880
2710000,0.0324,0.013523,0.002678,0.000431,0.001410
2711000,0.0324,0.013523,0.002678,0.000431,0.001528
2712000,0.0324,0.013523,0.002678,0.000431,0.001998
2713000,0.0324,0.013523,0.002678,0.000431,0.002116
2714000,0.0324,0.013523,0.002678,0.000431,0.002351
2715000,0.0324,0.013523,0.002678,0.000431,0.002116
2716000,0.0324,0.013523,0.002678,0.000431,0.001763
2717000,0.0324,0.013523,0.002678,0.000431,0.001645
2718000,0.0324,0.013523,0.002678,0.000431,0.001293
2719000,0.0324,0.013523,0.002678,0.000431,0.002116
2720000,0.0324,0.013523,0.002678,0.000431,0.002351
2721000,0.0324,0.013523,0.002678,0.000431,0.002116
2722000,0.0324,0.013523,0.002678,0.000431,0.002233
2723000,0.0324,0.013523,0.002678,0.000431,0.001293
2724000,0.0324,0.013523,0.002678,0.000431,0.001410
2725000,0.0324,0.013523,0.002678,0.000431,0.001880
2726000,0.0324,0.013523,0.002678,0.000431,0.002351
2727000,0.0324,0.013523,0.002678,0.000431,0.001880
2728000,0.0324,0.013523,0.002678,0.000431,0.002351
2729000,0.0324,0.013523,0.002678,0.000431,0.001528
2730000,0.0324,0.013523,0.002678,0.000431,0.001763
2731000,0.0324,0.013523,0.002678,0.000431,0.001410
2732000,0.0324,0.013523,0.002678,0.000431,0.002351
2733000,0.0324,0.013523,0.002678,0.000431,0.002116
2734000,0.0324,0.013523,0.002678,0.000431,0.002116
2735000,0.0324,0.013523,0.002678,0.000431,0.002233
2736000,0.0324,0.013523,0.002678,0.000431,0.001293
2737000,0.0324,0.013523,0.002678,0.000431,0.001410
2738000,0.0324,0.013523,0.002678,0.000431,0.002116
2739000,0.0324,0.013523,0.002678,0.000431,0.002116
2740000,0.0324,0.013523,0.002678,0.000431,0.002116
2741000,0.0324,0.013523,0.002678,0.000431,0.002351
2742000,0.0324,0.013523,0.002678,0.000431,0.001410
2743000,0.0324,0.013523,0.002678,0.000431,0.001528
2744000,0.0324,0.013523,0.002678,0.000431,0.001763
2745000,0.0324,0.013523,0.002678,0.000431,0.002116
2746000,0.0324,0.013523,0.002678,0.000431,0.002351
2747000,0.0324,0.013523,0.002678,0.000431,0.002116
2748000,0.0324,0.013523,0.002678,0.000431,0.001880
2749000,0.0324,0.013523,0.002678,0.000431,0.001528
2750000,0.0324,0.013523,0.002678,0.000431,0.001293
2751000,0.0324,0.013523,0.002678,0.000431,0.002116
2752000,0.0324,0.013523,0.002678,0.000431,0.002116
2753000,0.0324,0.013523,0.002678,0.000431,0.002351
2754000,0.0324,0.013523,0.002678,0.000431,0.002116
2755000,0.0324,0.013523,0.002678,0.000431,0.001410
2756000,0.0324,0.013523,0.002678,0.000431,0.001293
2757000,0.0324,0.013523,0.002678,0.000431,0.002233
2758000,0.0324,0.013523,0.002678,0.000431,0.002116
2759000,0.0324,0.013523,0.002678,0.000431,0.002116
2760000,0.0324,0.013523,0.002678,0.000431,0.002116
2761000,0.0324,0.013523,0.002678,0.000431,0.001763
2762000,0.0324,0.013523,0.002678,0.000431,0.001645
2763000,0.0324,0.013523,0.002678,0.000431,0.001293
2764000,0.0324,0.013523,0.002678,0.000431,0.002351
2765000,0.0324,0.013523,0.002678,0.000431,0.002116
2766000,0.0324,0.013523,0.002678,0.000431,0.002351
2767000,0.0324,0.013523,0.002678,0.000431,0.001998
2768000,0.0324,0.013523,0.002678,0.000431,0.001293
2769000,0.0324,0.013523,0.002678,0.000431,0.001410
2770000,0.0324,0.013523,0.002678,0.000431,0.001880
2771000,0.0324,0.013523,0.002678,0.000431,0.002351
2772000,0.0324,0.013523,0.002678,0.000431,0.002116
2773000,0.0324,0.013523,0.002678,0.000431,0.002351
2774000,0.0324,0.013523,0.002678,0.000431,0.001293
2775000,0.0324,0.013523,0.002678,0.000431,0.001880
2776000,0.0324,0.013523,0.002678,0.000431,0.001528
2777000,0.0324,0.013523,0.002678,0.000431,0.002116
2778000,0.0324,0.013523,0.002678,0.000431,0.002351
2779000,0.0324,0.013523,0.002678,0.000431,0.001880
2780000,0.0324,0.013523,0.002678,0.000431,0.002233
2781000,0.0324,0.013523,0.002678,0.000431,0.001528
2782000,0.0324,0.013523,0.002678,0.000431,0.001175
2783000,0.0324,0.013523,0.002678,0.000431,0.002116
2784000,0.0324,0.013523,0.002678,0.000431,0.002351
2785000,0.0324,0.013523,0.002678,0.000431,0.002116
2786000,0.0324,0.013523,0.002678,0.000431,0.002116
2787000,0.0324,0.013523,0.002678,0.000431,0.001410
2788000,0.0324,0.013523,0.002678,0.000431,0.001528
2789000,0.0324,0.013523,0.002678,0.000431,0.001763
2790000,0.0324,0.013523,0.002678,0.000431,0.002351
2791000,0.0324,0.013523,0.002678,0.000431,0.002116
2792000,0.0324,0.013523,0.002678,0.000431,0.002116
2793000,0.0324,0.013523,0.002678,0.000431,0.001998
2794000,0.0324,0.013523,0.002678,0.000431,0.001410
2795000,0.0324,0.013523,0.002678,0.000431,0.001293
2796000,0.0324,0.013523,0.002678,0.000431,0.002351
2797000,0.0324,0.013523,0.002678,0.000431,0.001880
2798000,0.0324,0.013523,0.002678,0.000431,0.002351
2799000,0.0324,0.013523,0.002678,0.000431,0.002351
2800000,0.0324,0.013523,0.002678,0.000431,0.001175
2801000,0.0324,0.013523,0.002678,0.000431,0.001410
2802000,0.0324,0.013523,0.002678,0.000431,0.002116
2803000,0.0324,0.013523,0.002678,0.000431,0.002116
2804000,0.0324,0.013523,0.002678,0.000431,0.002116
2805000,0.0324,0.013523,0.002678,0.000431,0.002351
2806000,0.0324,0.013523,0.002678,0.000431,0.001528
2807000,0.0324,0.013523,0.002678,0.000431,0.001645
2808000,0.0324,0.013523,0.002678,0.000431,0.001528
2809000,0.0324,0.013523,0.002678,0.000431,0.002116
2810000,0.0324,0.013523,0.002678,0.000431,0.002116
2811000,0.0324,0.013523,0.002678,0.000431,0.002351
2812000,0.0324,0.013523,0.002678,0.000431,0.001998
2813000,0.0324,0.013523,0.002678,0.000431,0.001293
2814000,0.0324,0.013523,0.002678,0.000431,0.001410
2815000,0.0324,0.013523,0.002678,0.000431,0.001410
2816000,0.0324,0.013523,0.002678,0.000431,0.001175
2817000,0.0324,0.013523,0.002678,0.000431,0.001058
2818000,0.0324,0.013523,0.002678,0.000431,0.001175
2819000,0.0324,0.013523,0.002678,0.000431,0.000940
2820000,0.0324,0.013523,0.002678,0.000431,0.000940
2821000,0.0324,0.013523,0.002678,0.000431,0.001175
2822000,0.0324,0.013523,0.002678,0.000431,0.000940
2823000,0.0324,0.013523,0.002678,0.000431,0.001175
2824000,0.0324,0.013523,0.002678,0.000431,0.001058
2825000,0.0324,0.013523,0.002678,0.000431,0.000940
2826000,0.0324,0.013523,0.002678,0.000431,0.001058
2827000,0.0324,0.013523,0.002678,0.000431,0.001175
2828000,0.0324,0.013523,0.002678,0.000431,0.001058
2829000,0.0324,0.013523,0.002678,0.000431,0.001058
2830000,0.0324,0.013523,0.002678,0.000431,0.001175
2831000,0.0324,0.013523,0.002678,0.000431,0.000705
2832000,0.0324,0.013523,0.002678,0.000431,0.001175
2833000,0.0324,0.013523,0.002678,0.000431,0.001175
2834000,0.0324,0.013523,0.002678,0.000431,0.001058
2835000,0.0324,0.013523,0.002678,0.000431,0.001058
2836000,0.0324,0.013523,0.002678,0.000431,0.001175
2837000,0.0324,0.013523,0.002678,0.000431,0.000823
2838000,0.0324,0.013523,0.002678,0.000431,0.001058
2839000,0.0324,0.013523,0.002678,0.000431,0.001175
2840000,0.0324,0.013523,0.002678,0.000431,0.000940
2841000,0.0324,0.013523,0.002678,0.000431,0.001175
2842000,0.0324,0.013523,0.002678,0.000431,0.000940
2843000,0.0324,0.013523,0.002678,0.000431,0.001058
2844000,0.0324,0.013523,0.002678,0.000431,0.001058
2845000,0.0324,0.013523,0.002678,0.000431,0.001175
2846000,0.0324,0.013523,0.002678,0.000431,0.001058
2847000,0.0324,0.013523,0.002678,0.000431,0.001058
2848000,0.0324,0.013523,0.002678,0.000431,0.000940
2849000,0.0324,0.013523,0.002678,0.000431,0.001058
2850000,0.0324,0.013523,0.002678,0.000431,0.001175
2851000,0.0324,0.013523,0.002678,0.000431,0.001058
2852000,0.0324,0.013523,0.002678,0.000431,0.001058
2853000,0.0324,0.013523,0.002678,0.000431,0.001175
2854000,0.0324,0.013523,0.002678,0.000431,0.000823
2855000,0.0324,0.013523,0.002678,0.000431,0.001058
2856000,0.0324,0.013523,0.002678,0.000431,0.001058
2857000,0.0324,0.013523,0.002678,0.000431,0.001175
2858000,0.0324,0.013523,0.002678,0.000431,0.001058
2859000,0.0324,0.013523,0.002678,0.000431,0.001058
2860000,0.0324,0.013523,0.002678,0.000431,0.000940
2861000,0.0324,0.013523,0.002678,0.000431,0.001175
2862000,0.0324,0.013523,0.002678,0.000431,0.001058
2863000,0.0324,0.013523,0.002678,0.000431,0.001058
2864000,0.0324,0.013523,0.002678,0.000431,0.001058
2865000,0.0324,0.013523,0.002678,0.000431,0.001058
2866000,0.0324,0.013523,0.002678,0.000431,0.000940
2867000,0.0324,0.013523,0.002678,0.000431,0.001058
2868000,0.0324,0.013523,0.002678,0.000431,0.001175
2869000,0.0324,0.013523,0.002678,0.000431,0.001058
2870000,0.0324,0.013523,0.002678,0.000431,0.001175
2871000,0.0324,0.013523,0.002678,0.000431,0.000940
2872000,0.0324,0.013523,0.002678,0.000431,0.000940
2873000,0.0324,0.013523,0.002678,0.000431,0.001175
2874000,0.0324,0.013523,0.002678,0.000431,0.000940
2875000,0.0324,0.013523,0.002678,0.000431,0.001175
2876000,0.0324,0.013523,0.002678,0.000431,0.001058
2877000,0.0324,0.013523,0.002678,0.000431,0.000940
2878000,0.0324,0.013523,0.002678,0.000431,0.001058
2879000,0.0324,0.013523,0.002678,0.000431,0.001175
2880000,0.0324,0.013523,0.002678,0.000431,0.001058
2881000,0.0324,0.013523,0.002678,0.000431,0.001058
2882000,0.0324,0.013523,0.002678,0.000431,0.001175
2883000,0.0324,0.013523,0.002678,0.000431,0.000823
2884000,0.0324,0.013523,0.002678,0.000431,0.001058
2885000,0.0324,0.013523,0.002678,0.000431,0.001175
2886000,0.0324,0.013523,0.002678,0.000431,0.001058
2887000,0.0324,0.013523,0.002678,0.000431,0.001058
2888000,0.0324,0.013523,0.002678,0.000431,0.001175
2889000,0.0324,0.013523,0.002678,0.000431,0.000823
2890000,0.0324,0.013523,0.002678,0.000431,0.001058
2891000,0.0324,0.013523,0.002678,0.000431,0.001175
2892000,0.0324,0.013523,0.002678,0.000431,0.001058
2893000,0.0324,0.013523,0.002678,0.000431,0.001058
2894000,0.0324,0.013523,0.002678,0.000431,0.000940
2895000,0.0324,0.013523,0.002678,0.000431,0.001175
2896000,0.0324,0.013523,0.002678,0.000431,0.000940
2897000,0.0324,0.013523,0.002678,0.000431,0.001175
2898000,0.0324,0.013523,0.002678,0.000431,0.001058
2899000,0.0324,0.013523,0.002678,0.000431,0.001058
2900000,0.0324,0.013523,0.002678,0.000431,0.000940
2901000,0.0324,0.013523,0.002678,0.000431,0.001058
2902000,0.0324,0.013523,0.002678,0.000431,0.001175
2903000,0.0324,0.013523,0.002678,0.000431,0.001058
2904000,0.0324,0.013523,0.002678,0.000431,0.001175
2905000,0.0324,0.013523,0.002678,0.000431,0.001058
2906000,0.0324,0.013523,0.002678,0.000431,0.000823
2907000,0.0324,0.013523,0.002678,0.000431,0.001175
2908000,0.0324,0.013523,0.002678,0.000431,0.000940
2909000,0.0324,0.013523,0.002678,0.000431,0.001175
2910000,0.0324,0.013523,0.002678,0.000431,0.001058
2911000,0.0324,0.013523,0.002678,0.000431,0.001058
2912000,0.0324,0.013523,0.002678,0.000431,0.000940
2913000,0.0324,0.013523,0.002678,0.000431,0.001175
2914000,0.0324,0.013523,0.002678,0.000431,0.001058
2915000,0.0324,0.013523,0.002678,0.000431,0.001058
2916000,0.0324,0.013523,0.002678,0.000431,0.001175
2917000,0.0324,0.013523,0.002678,0.000431,0.000940
2918000,0.0324,0.013523,0.002678,0.000431,0.000940
2919000,0.0324,0.013523,0.002678,0.000431,0.001175
2920000,0.0324,0.013523,0.002678,0.000431,0.001058
2921000,0.0324,0.013523,0.002678,0.000431,0.001058
2922000,0.0324,0.013523,0.002678,0.000431,0.001175
2923000,0.0324,0.013523,0.002678,0.000431,0.000940
2924000,0.0324,0.013523,0.002678,0.000431,0.000940
2925000,0.0324,0.013523,0.002678,0.000431,0.001175
2926000,0.0324,0.013523,0.002678,0.000431,0.000940
2927000,0.0324,0.013523,0.002678,0.000431,0.001175
2928000,0.0324,0.013523,0.002678,0.000431,0.001175
2929000,0.0324,0.013523,0.002678,0.000431,0.000823
2930000,0.0324,0.013523,0.002678,0.000431,0.001058
2931000,0.0324,0.013523,0.002678,0.000431,0.001175
2932000,0.0324,0.013523,0.002678,0.000431,0.001058
2933000,0.0324,0.013523,0.002678,0.000431,0.001058
2934000,0.0324,0.013523,0.002678,0.000431,0.001175
2935000,0.0324,0.013523,0.002678,0.000431,0.000823
2936000,0.0324,0.013523,0.002678,0.000431,0.001175
2937000,0.0324,0.013523,0.002678,0.000431,0.001058
2938000,0.0324,0.013523,0.002678,0.000431,0.001058
2939000,0.0324,0.013523,0.002678,0.000431,0.001058
2940000,0.0324,0.013523,0.002678,0.000431,0.001175
2941000,0.0324,0.013523,0.002678,0.000431,0.000823
2942000,0.0324,0.013523,0.002678,0.000431,0.001058
2943000,0.0324,0.013523,0.002678,0.000431,0.001175
2944000,0.0324,0.013523,0.002678,0.000431,0.001058
2945000,0.0324,0.013523,0.002678,0.000431,0.001175
2946000,0.0324,0.013523,0.002678,0.000431,0.000823
2947000,0.0324,0.013523,0.002678,0.000431,0.001175
2948000,0.0324,0.013523,0.002678,0.000431,0.001058
2949000,0.0324,0.013523,0.002678,0.000431,0.001058
2950000,0.0324,0.013523,0.002678,0.000431,0.001175
2951000,0.0324,0.013523,0.002678,0.000431,0.000940
2952000,0.0324,0.013523,0.002678,0.000431,0.000940
2953000,0.0324,0.013523,0.002678,0.000431,0.001058
2954000,0.0324,0.013523,0.002678,0.000431,0.001175
2955000,0.0324,0.013523,0.002678,0.000431,0.001058
2956000,0.0324,0.013523,0.002678,0.000431,0.001175
2957000,0.0324,0.013523,0.002678,0.000431,0.001058
2958000,0.0324,0.013523,0.002678,0.000431,0.000823
2959000,0.0324,0.013523,0.002678,0.000431,0.001175
2960000,0.0324,0.013523,0.002678,0.000431,0.000940
2961000,0.0324,0.013523,0.002678,0.000431,0.001175
2962000,0.0324,0.013523,0.002678,0.000431,0.001175
2963000,0.0324,0.013523,0.002678,0.000431,0.001058
2964000,0.0324,0.013523,0.002678,0.000431,0.000823
2965000,0.0324,0.013523,0.002678,0.000431,0.001175
2966000,0.0324,0.013523,0.002678,0.000431,0.001058
2967000,0.0324,0.013523,0.002678,0.000431,0.001058
2968000,0.0324,0.013523,0.002678,0.000431,0.001175
2969000,0.0324,0.013523,0.002678,0.000431,0.000940
2970000,0.0324,0.013523,0.002678,0.000431,0.000940
2971000,0.0324,0.013523,0.002678,0.000431,0.001175
2972000,0.0324,0.013523,0.002678,0.000431,0.001058
2973000,0.0324,0.013523,0.002678,0.000431,0.001058
2974000,0.0324,0.013523,0.002678,0.000431,0.001175
2975000,0.0324,0.013523,0.002678,0.000431,0.000940
2976000,0.0324,0.013523,0.002678,0.000431,0.000940
2977000,0.0324,0.013523,0.002678,0.000431,0.001175
2978000,0.0324,0.013523,0.002678,0.000431,0.001058
2979000,0.0324,0.013523,0.002678,0.000431,0.001058
2980000,0.0324,0.013523,0.002678,0.000431,0.001175
2981000,0.0324,0.013523,0.002678,0.000431,0.000940
2982000,0.0324,0.013523,0.002678,0.000431,0.000940
2983000,0.0324,0.013523,0.002678,0.000431,0.001175
2984000,0.0324,0.013523,0.002678,0.000431,0.001058
2985000,0.0324,0.013523,0.002678,0.000431,0.001058
2986000,0.0324,0.013523,0.002678,0.000431,0.001175
2987000,0.0324,0.013523,0.002678,0.000431,0.000823
2988000,0.0324,0.013523,0.002678,0.000431,0.001175
2989000,0.0324,0.013523,0.002678,0.000431,0.001058
2990000,0.0324,0.013523,0.002678,0.000431,0.001175
2991000,0.0324,0.013523,0.002678,0.000431,0.001058
2992000,0.0324,0.013523,0.002678,0.000431,0.001058
2993000,0.0324,0.013523,0.002678,0.000431,0.000940
2994000,0.0324,0.013523,0.002678,0.000431,0.000940
2995000,0.0324,0.013523,0.002678,0.000431,0.001175
2996000,0.0324,0.013523,0.002678,0.000431,0.001058
2997000,0.0324,0.013523,0.002678,0.000431,0.001175
2998000,0.0324,0.013523,0.002678,0.000431,0.000823
2999000,0.0324,0.013523,0.002678,0.000431,0.001175
