Cycle,Area(mm^2),PeakDynamic(W),SubthresholdLeakage(W),GateLeakage(W),RunTimeDynamic(W)
9000000,0.0324,0.013523,0.002678,0.000431,0.008697
9001000,0.0324,0.013523,0.002678,0.000431,0.004701
9002000,0.0324,0.013523,0.002678,0.000431,0.004701
9003000,0.0324,0.013523,0.002678,0.000431,0.004701
9004000,0.0324,0.013523,0.002678,0.000431,0.015984
9005000,0.0324,0.013523,0.002678,0.000431,0.008462
9006000,0.0324,0.013523,0.002678,0.000431,0.019745
9007000,0.0324,0.013523,0.002678,0.000431,0.004701
9008000,0.0324,0.013523,0.002678,0.000431,0.004701
9009000,0.0324,0.013523,0.002678,0.000431,0.004701
9010000,0.0324,0.013523,0.002678,0.000431,0.012223
9011000,0.0324,0.013523,0.002678,0.000431,0.004701
9012000,0.0324,0.013523,0.002678,0.000431,0.093787
9013000,0.0324,0.013523,0.002678,0.000431,0.004701
9014000,0.0324,0.013523,0.002678,0.000431,0.004701
9015000,0.0324,0.013523,0.002678,0.000431,0.004701
9016000,0.0324,0.013523,0.002678,0.000431,0.004701
9017000,0.0324,0.013523,0.002678,0.000431,0.027267
9018000,0.0324,0.013523,0.002678,0.000431,0.019980
9019000,0.0324,0.013523,0.002678,0.000431,0.065111
9020000,0.0324,0.013523,0.002678,0.000431,0.004701
9021000,0.0324,0.013523,0.002678,0.000431,0.004701
9022000,0.0324,0.013523,0.002678,0.000431,0.004466
9023000,0.0324,0.013523,0.002678,0.000431,0.071457
9024000,0.0324,0.013523,0.002678,0.000431,0.042780
9025000,0.0324,0.013523,0.002678,0.000431,0.042310
9026000,0.0324,0.013523,0.002678,0.000431,0.061232
9027000,0.0324,0.013523,0.002678,0.000431,0.023623
9028000,0.0324,0.013523,0.002678,0.000431,0.004701
9029000,0.0324,0.013523,0.002678,0.000431,0.004701
9030000,0.0324,0.013523,0.002678,0.000431,0.004701
9031000,0.0324,0.013523,0.002678,0.000431,0.027267
9032000,0.0324,0.013523,0.002678,0.000431,0.004466
9033000,0.0324,0.013523,0.002678,0.000431,0.042310
9034000,0.0324,0.013523,0.002678,0.000431,0.004701
9035000,0.0324,0.013523,0.002678,0.000431,0.004584
9036000,0.0324,0.013523,0.002678,0.000431,0.004584
9037000,0.0324,0.013523,0.002678,0.000431,0.004701
9038000,0.0324,0.013523,0.002678,0.000431,0.012223
9039000,0.0324,0.013523,0.002678,0.000431,0.008580
9040000,0.0324,0.013523,0.002678,0.000431,0.008580
9041000,0.0324,0.013523,0.002678,0.000431,0.004701
9042000,0.0324,0.013523,0.002678,0.000431,0.004701
9043000,0.0324,0.013523,0.002678,0.000431,0.004701
9044000,0.0324,0.013523,0.002678,0.000431,0.015984
9045000,0.0324,0.013523,0.002678,0.000431,0.015984
9046000,0.0324,0.013523,0.002678,0.000431,0.019745
9047000,0.0324,0.013523,0.002678,0.000431,0.004701
9048000,0.0324,0.013523,0.002678,0.000431,0.004701
9049000,0.0324,0.013523,0.002678,0.000431,0.004701
9050000,0.0324,0.013523,0.002678,0.000431,0.015984
9051000,0.0324,0.013523,0.002678,0.000431,0.038549
9052000,0.0324,0.013523,0.002678,0.000431,0.004701
9053000,0.0324,0.013523,0.002678,0.000431,0.004584
9054000,0.0324,0.013523,0.002678,0.000431,0.004584
9055000,0.0324,0.013523,0.002678,0.000431,0.004701
9056000,0.0324,0.013523,0.002678,0.000431,0.004701
9057000,0.0324,0.013523,0.002678,0.000431,0.027267
9058000,0.0324,0.013523,0.002678,0.000431,0.004701
9059000,0.0324,0.013523,0.002678,0.000431,0.012223
9060000,0.0324,0.013523,0.002678,0.000431,0.004701
9061000,0.0324,0.013523,0.002678,0.000431,0.004701
9062000,0.0324,0.013523,0.002678,0.000431,0.004466
9063000,0.0324,0.013523,0.002678,0.000431,0.030792
9064000,0.0324,0.013523,0.002678,0.000431,0.016219
9065000,0.0324,0.013523,0.002678,0.000431,0.004701
9066000,0.0324,0.013523,0.002678,0.000431,0.004701
9067000,0.0324,0.013523,0.002678,0.000431,0.004701
9068000,0.0324,0.013523,0.002678,0.000431,0.004701
9069000,0.0324,0.013523,0.002678,0.000431,0.004701
9070000,0.0324,0.013523,0.002678,0.000431,0.012223
9071000,0.0324,0.013523,0.002678,0.000431,0.051242
9072000,0.0324,0.013523,0.002678,0.000431,0.004466
9073000,0.0324,0.013523,0.002678,0.000431,0.004701
9074000,0.0324,0.013523,0.002678,0.000431,0.004701
9075000,0.0324,0.013523,0.002678,0.000431,0.121642
9076000,0.0324,0.013523,0.002678,0.000431,0.068049
9077000,0.0324,0.013523,0.002678,0.000431,0.018099
9078000,0.0324,0.013523,0.002678,0.000431,0.028912
9079000,0.0324,0.013523,0.002678,0.000431,0.004701
9080000,0.0324,0.013523,0.002678,0.000431,0.004701
9081000,0.0324,0.013523,0.002678,0.000431,0.004701
9082000,0.0324,0.013523,0.002678,0.000431,0.004701
9083000,0.0324,0.013523,0.002678,0.000431,0.012223
9084000,0.0324,0.013523,0.002678,0.000431,0.026091
9085000,0.0324,0.013523,0.002678,0.000431,0.004701
9086000,0.0324,0.013523,0.002678,0.000431,0.004701
9087000,0.0324,0.013523,0.002678,0.000431,0.004701
9088000,0.0324,0.013523,0.002678,0.000431,0.042310
9089000,0.0324,0.013523,0.002678,0.000431,0.092847
9090000,0.0324,0.013523,0.002678,0.000431,0.033378
9091000,0.0324,0.013523,0.002678,0.000431,0.015984
9092000,0.0324,0.013523,0.002678,0.000431,0.004701
9093000,0.0324,0.013523,0.002678,0.000431,0.004584
9094000,0.0324,0.013523,0.002678,0.000431,0.004584
9095000,0.0324,0.013523,0.002678,0.000431,0.013163
9096000,0.0324,0.013523,0.002678,0.000431,0.078979
9097000,0.0324,0.013523,0.002678,0.000431,0.004701
9098000,0.0324,0.013523,0.002678,0.000431,0.004701
9099000,0.0324,0.013523,0.002678,0.000431,0.004701
9100000,0.0324,0.013523,0.002678,0.000431,0.004701
9101000,0.0324,0.013523,0.002678,0.000431,0.004701
9102000,0.0324,0.013523,0.002678,0.000431,0.013751
9103000,0.0324,0.013523,0.002678,0.000431,0.017982
9104000,0.0324,0.013523,0.002678,0.000431,0.004701
9105000,0.0324,0.013523,0.002678,0.000431,0.019745
9106000,0.0324,0.013523,0.002678,0.000431,0.004701
9107000,0.0324,0.013523,0.002678,0.000431,0.004701
9108000,0.0324,0.013523,0.002678,0.000431,0.015396
9109000,0.0324,0.013523,0.002678,0.000431,0.045718
9110000,0.0324,0.013523,0.002678,0.000431,0.034318
9111000,0.0324,0.013523,0.002678,0.000431,0.012458
9112000,0.0324,0.013523,0.002678,0.000431,0.004466
9113000,0.0324,0.013523,0.002678,0.000431,0.004701
9114000,0.0324,0.013523,0.002678,0.000431,0.004701
9115000,0.0324,0.013523,0.002678,0.000431,0.004701
9116000,0.0324,0.013523,0.002678,0.000431,0.042310
9117000,0.0324,0.013523,0.002678,0.000431,0.064876
9118000,0.0324,0.013523,0.002678,0.000431,0.004701
9119000,0.0324,0.013523,0.002678,0.000431,0.004701
9120000,0.0324,0.013523,0.002678,0.000431,0.004701
9121000,0.0324,0.013523,0.002678,0.000431,0.004701
9122000,0.0324,0.013523,0.002678,0.000431,0.004701
9123000,0.0324,0.013523,0.002678,0.000431,0.061115
9124000,0.0324,0.013523,0.002678,0.000431,0.008462
9125000,0.0324,0.013523,0.002678,0.000431,0.004701
9126000,0.0324,0.013523,0.002678,0.000431,0.004701
9127000,0.0324,0.013523,0.002678,0.000431,0.004701
9128000,0.0324,0.013523,0.002678,0.000431,0.004701
9129000,0.0324,0.013523,0.002678,0.000431,0.042310
9130000,0.0324,0.013523,0.002678,0.000431,0.064876
9131000,0.0324,0.013523,0.002678,0.000431,0.004701
9132000,0.0324,0.013523,0.002678,0.000431,0.004701
9133000,0.0324,0.013523,0.002678,0.000431,0.004701
9134000,0.0324,0.013523,0.002678,0.000431,0.011988
9135000,0.0324,0.013523,0.002678,0.000431,0.087441
9136000,0.0324,0.013523,0.002678,0.000431,0.090379
9137000,0.0324,0.013523,0.002678,0.000431,0.077921
9138000,0.0324,0.013523,0.002678,0.000431,0.012223
9139000,0.0324,0.013523,0.002678,0.000431,0.004701
9140000,0.0324,0.013523,0.002678,0.000431,0.008462
9141000,0.0324,0.013523,0.002678,0.000431,0.008462
9142000,0.0324,0.013523,0.002678,0.000431,0.016689
9143000,0.0324,0.013523,0.002678,0.000431,0.007522
9144000,0.0324,0.013523,0.002678,0.000431,0.004701
9145000,0.0324,0.013523,0.002678,0.000431,0.004701
9146000,0.0324,0.013523,0.002678,0.000431,0.012223
9147000,0.0324,0.013523,0.002678,0.000431,0.004701
9148000,0.0324,0.013523,0.002678,0.000431,0.012105
9149000,0.0324,0.013523,0.002678,0.000431,0.125168
9150000,0.0324,0.013523,0.002678,0.000431,0.004584
9151000,0.0324,0.013523,0.002678,0.000431,0.004584
9152000,0.0324,0.013523,0.002678,0.000431,0.017042
9153000,0.0324,0.013523,0.002678,0.000431,0.135275
9154000,0.0324,0.013523,0.002678,0.000431,0.019745
9155000,0.0324,0.013523,0.002678,0.000431,0.031027
9156000,0.0324,0.013523,0.002678,0.000431,0.053593
9157000,0.0324,0.013523,0.002678,0.000431,0.004701
9158000,0.0324,0.013523,0.002678,0.000431,0.009402
9159000,0.0324,0.013523,0.002678,0.000431,0.031027
9160000,0.0324,0.013523,0.002678,0.000431,0.004701
9161000,0.0324,0.013523,0.002678,0.000431,0.004584
9162000,0.0324,0.013523,0.002678,0.000431,0.012105
9163000,0.0324,0.013523,0.002678,0.000431,0.034788
9164000,0.0324,0.013523,0.002678,0.000431,0.004701
9165000,0.0324,0.013523,0.002678,0.000431,0.012223
9166000,0.0324,0.013523,0.002678,0.000431,0.004701
9167000,0.0324,0.013523,0.002678,0.000431,0.004701
9168000,0.0324,0.013523,0.002678,0.000431,0.004701
9169000,0.0324,0.013523,0.002678,0.000431,0.012223
9170000,0.0324,0.013523,0.002678,0.000431,0.004701
9171000,0.0324,0.013523,0.002678,0.000431,0.012223
9172000,0.0324,0.013523,0.002678,0.000431,0.012223
9173000,0.0324,0.013523,0.002678,0.000431,0.004584
9174000,0.0324,0.013523,0.002678,0.000431,0.010225
9175000,0.0324,0.013523,0.002678,0.000431,0.021625
9176000,0.0324,0.013523,0.002678,0.000431,0.042310
9177000,0.0324,0.013523,0.002678,0.000431,0.004701
9178000,0.0324,0.013523,0.002678,0.000431,0.012223
9179000,0.0324,0.013523,0.002678,0.000431,0.004701
9180000,0.0324,0.013523,0.002678,0.000431,0.004701
9181000,0.0324,0.013523,0.002678,0.000431,0.004701
9182000,0.0324,0.013523,0.002678,0.000431,0.004466
9183000,0.0324,0.013523,0.002678,0.000431,0.004701
9184000,0.0324,0.013523,0.002678,0.000431,0.004701
9185000,0.0324,0.013523,0.002678,0.000431,0.004701
9186000,0.0324,0.013523,0.002678,0.000431,0.004701
9187000,0.0324,0.013523,0.002678,0.000431,0.025739
9188000,0.0324,0.013523,0.002678,0.000431,0.119174
9189000,0.0324,0.013523,0.002678,0.000431,0.019627
9190000,0.0324,0.013523,0.002678,0.000431,0.004584
9191000,0.0324,0.013523,0.002678,0.000431,0.012105
9192000,0.0324,0.013523,0.002678,0.000431,0.004701
9193000,0.0324,0.013523,0.002678,0.000431,0.004701
9194000,0.0324,0.013523,0.002678,0.000431,0.019745
9195000,0.0324,0.013523,0.002678,0.000431,0.042310
9196000,0.0324,0.013523,0.002678,0.000431,0.004701
9197000,0.0324,0.013523,0.002678,0.000431,0.019745
9198000,0.0324,0.013523,0.002678,0.000431,0.004701
9199000,0.0324,0.013523,0.002678,0.000431,0.004701
9200000,0.0324,0.013523,0.002678,0.000431,0.013398
9201000,0.0324,0.013523,0.002678,0.000431,0.026091
9202000,0.0324,0.013523,0.002678,0.000431,0.004701
9203000,0.0324,0.013523,0.002678,0.000431,0.008462
9204000,0.0324,0.013523,0.002678,0.000431,0.023506
9205000,0.0324,0.013523,0.002678,0.000431,0.004701
9206000,0.0324,0.013523,0.002678,0.000431,0.004701
9207000,0.0324,0.013523,0.002678,0.000431,0.012223
9208000,0.0324,0.013523,0.002678,0.000431,0.042310
9209000,0.0324,0.013523,0.002678,0.000431,0.060762
9210000,0.0324,0.013523,0.002678,0.000431,0.053475
9211000,0.0324,0.013523,0.002678,0.000431,0.004701
9212000,0.0324,0.013523,0.002678,0.000431,0.004701
9213000,0.0324,0.013523,0.002678,0.000431,0.004701
9214000,0.0324,0.013523,0.002678,0.000431,0.050655
9215000,0.0324,0.013523,0.002678,0.000431,0.049009
9216000,0.0324,0.013523,0.002678,0.000431,0.012223
9217000,0.0324,0.013523,0.002678,0.000431,0.004701
9218000,0.0324,0.013523,0.002678,0.000431,0.004701
9219000,0.0324,0.013523,0.002678,0.000431,0.004701
9220000,0.0324,0.013523,0.002678,0.000431,0.015866
9221000,0.0324,0.013523,0.002678,0.000431,0.038432
9222000,0.0324,0.013523,0.002678,0.000431,0.004466
9223000,0.0324,0.013523,0.002678,0.000431,0.004701
9224000,0.0324,0.013523,0.002678,0.000431,0.004701
9225000,0.0324,0.013523,0.002678,0.000431,0.004701
9226000,0.0324,0.013523,0.002678,0.000431,0.004701
9227000,0.0324,0.013523,0.002678,0.000431,0.038549
9228000,0.0324,0.013523,0.002678,0.000431,0.053593
9229000,0.0324,0.013523,0.002678,0.000431,0.004701
9230000,0.0324,0.013523,0.002678,0.000431,0.019745
9231000,0.0324,0.013523,0.002678,0.000431,0.004466
9232000,0.0324,0.013523,0.002678,0.000431,0.004701
9233000,0.0324,0.013523,0.002678,0.000431,0.004701
9234000,0.0324,0.013523,0.002678,0.000431,0.057354
9235000,0.0324,0.013523,0.002678,0.000431,0.004466
9236000,0.0324,0.013523,0.002678,0.000431,0.074278
9237000,0.0324,0.013523,0.002678,0.000431,0.047716
9238000,0.0324,0.013523,0.002678,0.000431,0.004701
9239000,0.0324,0.013523,0.002678,0.000431,0.094963
9240000,0.0324,0.013523,0.002678,0.000431,0.011988
9241000,0.0324,0.013523,0.002678,0.000431,0.012223
9242000,0.0324,0.013523,0.002678,0.000431,0.004701
9243000,0.0324,0.013523,0.002678,0.000431,0.087441
9244000,0.0324,0.013523,0.002678,0.000431,0.004701
9245000,0.0324,0.013523,0.002678,0.000431,0.034788
9246000,0.0324,0.013523,0.002678,0.000431,0.004701
9247000,0.0324,0.013523,0.002678,0.000431,0.027267
9248000,0.0324,0.013523,0.002678,0.000431,0.004584
9249000,0.0324,0.013523,0.002678,0.000431,0.034671
9250000,0.0324,0.013523,0.002678,0.000431,0.004701
9251000,0.0324,0.013523,0.002678,0.000431,0.004701
9252000,0.0324,0.013523,0.002678,0.000431,0.004701
9253000,0.0324,0.013523,0.002678,0.000431,0.009637
9254000,0.0324,0.013523,0.002678,0.000431,0.037374
9255000,0.0324,0.013523,0.002678,0.000431,0.004701
9256000,0.0324,0.013523,0.002678,0.000431,0.012223
9257000,0.0324,0.013523,0.002678,0.000431,0.004701
9258000,0.0324,0.013523,0.002678,0.000431,0.004701
9259000,0.0324,0.013523,0.002678,0.000431,0.004701
9260000,0.0324,0.013523,0.002678,0.000431,0.034788
9261000,0.0324,0.013523,0.002678,0.000431,0.048657
9262000,0.0324,0.013523,0.002678,0.000431,0.034671
9263000,0.0324,0.013523,0.002678,0.000431,0.004584
9264000,0.0324,0.013523,0.002678,0.000431,0.019745
9265000,0.0324,0.013523,0.002678,0.000431,0.004701
9266000,0.0324,0.013523,0.002678,0.000431,0.004701
9267000,0.0324,0.013523,0.002678,0.000431,0.102720
9268000,0.0324,0.013523,0.002678,0.000431,0.027502
9269000,0.0324,0.013523,0.002678,0.000431,0.027031
9270000,0.0324,0.013523,0.002678,0.000431,0.004584
9271000,0.0324,0.013523,0.002678,0.000431,0.004584
9272000,0.0324,0.013523,0.002678,0.000431,0.004701
9273000,0.0324,0.013523,0.002678,0.000431,0.004701
9274000,0.0324,0.013523,0.002678,0.000431,0.004701
9275000,0.0324,0.013523,0.002678,0.000431,0.057236
9276000,0.0324,0.013523,0.002678,0.000431,0.004584
9277000,0.0324,0.013523,0.002678,0.000431,0.064641
9278000,0.0324,0.013523,0.002678,0.000431,0.004701
9279000,0.0324,0.013523,0.002678,0.000431,0.004701
9280000,0.0324,0.013523,0.002678,0.000431,0.004701
9281000,0.0324,0.013523,0.002678,0.000431,0.065346
9282000,0.0324,0.013523,0.002678,0.000431,0.026679
9283000,0.0324,0.013523,0.002678,0.000431,0.014809
9284000,0.0324,0.013523,0.002678,0.000431,0.054651
9285000,0.0324,0.013523,0.002678,0.000431,0.004701
9286000,0.0324,0.013523,0.002678,0.000431,0.004701
9287000,0.0324,0.013523,0.002678,0.000431,0.004701
9288000,0.0324,0.013523,0.002678,0.000431,0.125050
9289000,0.0324,0.013523,0.002678,0.000431,0.004701
9290000,0.0324,0.013523,0.002678,0.000431,0.019745
9291000,0.0324,0.013523,0.002678,0.000431,0.004701
9292000,0.0324,0.013523,0.002678,0.000431,0.004701
9293000,0.0324,0.013523,0.002678,0.000431,0.004701
9294000,0.0324,0.013523,0.002678,0.000431,0.032673
9295000,0.0324,0.013523,0.002678,0.000431,0.157253
9296000,0.0324,0.013523,0.002678,0.000431,0.036904
9297000,0.0324,0.013523,0.002678,0.000431,0.047246
9298000,0.0324,0.013523,0.002678,0.000431,0.004701
9299000,0.0324,0.013523,0.002678,0.000431,0.004701
9300000,0.0324,0.013523,0.002678,0.000431,0.004701
9301000,0.0324,0.013523,0.002678,0.000431,0.072397
9302000,0.0324,0.013523,0.002678,0.000431,0.004701
9303000,0.0324,0.013523,0.002678,0.000431,0.012223
9304000,0.0324,0.013523,0.002678,0.000431,0.027267
9305000,0.0324,0.013523,0.002678,0.000431,0.004701
9306000,0.0324,0.013523,0.002678,0.000431,0.004701
9307000,0.0324,0.013523,0.002678,0.000431,0.027267
9308000,0.0324,0.013523,0.002678,0.000431,0.027267
9309000,0.0324,0.013523,0.002678,0.000431,0.004584
9310000,0.0324,0.013523,0.002678,0.000431,0.027149
9311000,0.0324,0.013523,0.002678,0.000431,0.004701
9312000,0.0324,0.013523,0.002678,0.000431,0.004701
9313000,0.0324,0.013523,0.002678,0.000431,0.004701
9314000,0.0324,0.013523,0.002678,0.000431,0.055943
9315000,0.0324,0.013523,0.002678,0.000431,0.043603
9316000,0.0324,0.013523,0.002678,0.000431,0.012105
9317000,0.0324,0.013523,0.002678,0.000431,0.004701
9318000,0.0324,0.013523,0.002678,0.000431,0.004701
9319000,0.0324,0.013523,0.002678,0.000431,0.004701
9320000,0.0324,0.013523,0.002678,0.000431,0.004701
9321000,0.0324,0.013523,0.002678,0.000431,0.004701
9322000,0.0324,0.013523,0.002678,0.000431,0.004701
9323000,0.0324,0.013523,0.002678,0.000431,0.004584
9324000,0.0324,0.013523,0.002678,0.000431,0.004584
9325000,0.0324,0.013523,0.002678,0.000431,0.004701
9326000,0.0324,0.013523,0.002678,0.000431,0.017864
9327000,0.0324,0.013523,0.002678,0.000431,0.100369
9328000,0.0324,0.013523,0.002678,0.000431,0.114002
9329000,0.0324,0.013523,0.002678,0.000431,0.023506
9330000,0.0324,0.013523,0.002678,0.000431,0.023506
9331000,0.0324,0.013523,0.002678,0.000431,0.004584
9332000,0.0324,0.013523,0.002678,0.000431,0.004584
9333000,0.0324,0.013523,0.002678,0.000431,0.049949
9334000,0.0324,0.013523,0.002678,0.000431,0.032085
9335000,0.0324,0.013523,0.002678,0.000431,0.203089
9336000,0.0324,0.013523,0.002678,0.000431,0.146675
9337000,0.0324,0.013523,0.002678,0.000431,0.042310
9338000,0.0324,0.013523,0.002678,0.000431,0.004701
9339000,0.0324,0.013523,0.002678,0.000431,0.039372
9340000,0.0324,0.013523,0.002678,0.000431,0.022683
9341000,0.0324,0.013523,0.002678,0.000431,0.004701
9342000,0.0324,0.013523,0.002678,0.000431,0.080154
9343000,0.0324,0.013523,0.002678,0.000431,0.060174
9344000,0.0324,0.013523,0.002678,0.000431,0.039489
9345000,0.0324,0.013523,0.002678,0.000431,0.004701
9346000,0.0324,0.013523,0.002678,0.000431,0.034788
9347000,0.0324,0.013523,0.002678,0.000431,0.004701
9348000,0.0324,0.013523,0.002678,0.000431,0.004466
9349000,0.0324,0.013523,0.002678,0.000431,0.004349
9350000,0.0324,0.013523,0.002678,0.000431,0.034671
9351000,0.0324,0.013523,0.002678,0.000431,0.004701
9352000,0.0324,0.013523,0.002678,0.000431,0.004701
9353000,0.0324,0.013523,0.002678,0.000431,0.072632
9354000,0.0324,0.013523,0.002678,0.000431,0.004701
9355000,0.0324,0.013523,0.002678,0.000431,0.027267
9356000,0.0324,0.013523,0.002678,0.000431,0.012223
9357000,0.0324,0.013523,0.002678,0.000431,0.012223
9358000,0.0324,0.013523,0.002678,0.000431,0.004701
9359000,0.0324,0.013523,0.002678,0.000431,0.033966
9360000,0.0324,0.013523,0.002678,0.000431,0.058647
9361000,0.0324,0.013523,0.002678,0.000431,0.019745
9362000,0.0324,0.013523,0.002678,0.000431,0.004701
9363000,0.0324,0.013523,0.002678,0.000431,0.004701
9364000,0.0324,0.013523,0.002678,0.000431,0.004701
9365000,0.0324,0.013523,0.002678,0.000431,0.012223
9366000,0.0324,0.013523,0.002678,0.000431,0.004701
9367000,0.0324,0.013523,0.002678,0.000431,0.004701
9368000,0.0324,0.013523,0.002678,0.000431,0.004701
9369000,0.0324,0.013523,0.002678,0.000431,0.019745
9370000,0.0324,0.013523,0.002678,0.000431,0.027267
9371000,0.0324,0.013523,0.002678,0.000431,0.004466
9372000,0.0324,0.013523,0.002678,0.000431,0.004701
9373000,0.0324,0.013523,0.002678,0.000431,0.019745
9374000,0.0324,0.013523,0.002678,0.000431,0.004701
9375000,0.0324,0.013523,0.002678,0.000431,0.004701
9376000,0.0324,0.013523,0.002678,0.000431,0.011988
9377000,0.0324,0.013523,0.002678,0.000431,0.019980
9378000,0.0324,0.013523,0.002678,0.000431,0.098606
9379000,0.0324,0.013523,0.002678,0.000431,0.076041
9380000,0.0324,0.013523,0.002678,0.000431,0.020802
9381000,0.0324,0.013523,0.002678,0.000431,0.078979
9382000,0.0324,0.013523,0.002678,0.000431,0.050185
9383000,0.0324,0.013523,0.002678,0.000431,0.015631
9384000,0.0324,0.013523,0.002678,0.000431,0.042310
9385000,0.0324,0.013523,0.002678,0.000431,0.068989
9386000,0.0324,0.013523,0.002678,0.000431,0.012223
9387000,0.0324,0.013523,0.002678,0.000431,0.004701
9388000,0.0324,0.013523,0.002678,0.000431,0.019745
9389000,0.0324,0.013523,0.002678,0.000431,0.004466
9390000,0.0324,0.013523,0.002678,0.000431,0.027619
9391000,0.0324,0.013523,0.002678,0.000431,0.139271
9392000,0.0324,0.013523,0.002678,0.000431,0.019745
9393000,0.0324,0.013523,0.002678,0.000431,0.004701
9394000,0.0324,0.013523,0.002678,0.000431,0.004701
9395000,0.0324,0.013523,0.002678,0.000431,0.023506
9396000,0.0324,0.013523,0.002678,0.000431,0.031027
9397000,0.0324,0.013523,0.002678,0.000431,0.004701
9398000,0.0324,0.013523,0.002678,0.000431,0.004701
9399000,0.0324,0.013523,0.002678,0.000431,0.004701
9400000,0.0324,0.013523,0.002678,0.000431,0.004701
9401000,0.0324,0.013523,0.002678,0.000431,0.034788
9402000,0.0324,0.013523,0.002678,0.000431,0.004701
9403000,0.0324,0.013523,0.002678,0.000431,0.008462
9404000,0.0324,0.013523,0.002678,0.000431,0.015984
9405000,0.0324,0.013523,0.002678,0.000431,0.004701
9406000,0.0324,0.013523,0.002678,0.000431,0.004701
9407000,0.0324,0.013523,0.002678,0.000431,0.032438
9408000,0.0324,0.013523,0.002678,0.000431,0.022095
9409000,0.0324,0.013523,0.002678,0.000431,0.004466
9410000,0.0324,0.013523,0.002678,0.000431,0.004701
9411000,0.0324,0.013523,0.002678,0.000431,0.004466
9412000,0.0324,0.013523,0.002678,0.000431,0.004701
9413000,0.0324,0.013523,0.002678,0.000431,0.004701
9414000,0.0324,0.013523,0.002678,0.000431,0.042310
9415000,0.0324,0.013523,0.002678,0.000431,0.004701
9416000,0.0324,0.013523,0.002678,0.000431,0.023858
9417000,0.0324,0.013523,0.002678,0.000431,0.023153
9418000,0.0324,0.013523,0.002678,0.000431,0.027267
9419000,0.0324,0.013523,0.002678,0.000431,0.057236
9420000,0.0324,0.013523,0.002678,0.000431,0.004584
9421000,0.0324,0.013523,0.002678,0.000431,0.004701
9422000,0.0324,0.013523,0.002678,0.000431,0.004701
9423000,0.0324,0.013523,0.002678,0.000431,0.042310
9424000,0.0324,0.013523,0.002678,0.000431,0.004701
9425000,0.0324,0.013523,0.002678,0.000431,0.004701
9426000,0.0324,0.013523,0.002678,0.000431,0.004701
9427000,0.0324,0.013523,0.002678,0.000431,0.004701
9428000,0.0324,0.013523,0.002678,0.000431,0.012223
9429000,0.0324,0.013523,0.002678,0.000431,0.004584
9430000,0.0324,0.013523,0.002678,0.000431,0.012105
9431000,0.0324,0.013523,0.002678,0.000431,0.004701
9432000,0.0324,0.013523,0.002678,0.000431,0.049832
9433000,0.0324,0.013523,0.002678,0.000431,0.012223
9434000,0.0324,0.013523,0.002678,0.000431,0.012223
9435000,0.0324,0.013523,0.002678,0.000431,0.004701
9436000,0.0324,0.013523,0.002678,0.000431,0.012223
9437000,0.0324,0.013523,0.002678,0.000431,0.012223
9438000,0.0324,0.013523,0.002678,0.000431,0.050537
9439000,0.0324,0.013523,0.002678,0.000431,0.045366
9440000,0.0324,0.013523,0.002678,0.000431,0.015984
9441000,0.0324,0.013523,0.002678,0.000431,0.019745
9442000,0.0324,0.013523,0.002678,0.000431,0.004701
9443000,0.0324,0.013523,0.002678,0.000431,0.012223
9444000,0.0324,0.013523,0.002678,0.000431,0.004701
9445000,0.0324,0.013523,0.002678,0.000431,0.076393
9446000,0.0324,0.013523,0.002678,0.000431,0.061115
9447000,0.0324,0.013523,0.002678,0.000431,0.005406
9448000,0.0324,0.013523,0.002678,0.000431,0.049127
9449000,0.0324,0.013523,0.002678,0.000431,0.011988
9450000,0.0324,0.013523,0.002678,0.000431,0.004701
9451000,0.0324,0.013523,0.002678,0.000431,0.004466
9452000,0.0324,0.013523,0.002678,0.000431,0.077334
9453000,0.0324,0.013523,0.002678,0.000431,0.044896
9454000,0.0324,0.013523,0.002678,0.000431,0.004701
9455000,0.0324,0.013523,0.002678,0.000431,0.033260
9456000,0.0324,0.013523,0.002678,0.000431,0.043838
9457000,0.0324,0.013523,0.002678,0.000431,0.004701
9458000,0.0324,0.013523,0.002678,0.000431,0.004701
9459000,0.0324,0.013523,0.002678,0.000431,0.042193
9460000,0.0324,0.013523,0.002678,0.000431,0.004584
9461000,0.0324,0.013523,0.002678,0.000431,0.004701
9462000,0.0324,0.013523,0.002678,0.000431,0.049832
9463000,0.0324,0.013523,0.002678,0.000431,0.004701
9464000,0.0324,0.013523,0.002678,0.000431,0.004701
9465000,0.0324,0.013523,0.002678,0.000431,0.012223
9466000,0.0324,0.013523,0.002678,0.000431,0.004701
9467000,0.0324,0.013523,0.002678,0.000431,0.012458
9468000,0.0324,0.013523,0.002678,0.000431,0.022330
9469000,0.0324,0.013523,0.002678,0.000431,0.099546
9470000,0.0324,0.013523,0.002678,0.000431,0.004584
9471000,0.0324,0.013523,0.002678,0.000431,0.027267
9472000,0.0324,0.013523,0.002678,0.000431,0.004701
9473000,0.0324,0.013523,0.002678,0.000431,0.008462
9474000,0.0324,0.013523,0.002678,0.000431,0.061115
9475000,0.0324,0.013523,0.002678,0.000431,0.012223
9476000,0.0324,0.013523,0.002678,0.000431,0.004701
9477000,0.0324,0.013523,0.002678,0.000431,0.004701
9478000,0.0324,0.013523,0.002678,0.000431,0.057354
9479000,0.0324,0.013523,0.002678,0.000431,0.024328
9480000,0.0324,0.013523,0.002678,0.000431,0.037491
9481000,0.0324,0.013523,0.002678,0.000431,0.004701
9482000,0.0324,0.013523,0.002678,0.000431,0.004701
9483000,0.0324,0.013523,0.002678,0.000431,0.004701
9484000,0.0324,0.013523,0.002678,0.000431,0.004701
9485000,0.0324,0.013523,0.002678,0.000431,0.042310
9486000,0.0324,0.013523,0.002678,0.000431,0.004701
9487000,0.0324,0.013523,0.002678,0.000431,0.004701
9488000,0.0324,0.013523,0.002678,0.000431,0.004584
9489000,0.0324,0.013523,0.002678,0.000431,0.004584
9490000,0.0324,0.013523,0.002678,0.000431,0.004701
9491000,0.0324,0.013523,0.002678,0.000431,0.094610
9492000,0.0324,0.013523,0.002678,0.000431,0.004584
9493000,0.0324,0.013523,0.002678,0.000431,0.004701
9494000,0.0324,0.013523,0.002678,0.000431,0.004701
9495000,0.0324,0.013523,0.002678,0.000431,0.004701
9496000,0.0324,0.013523,0.002678,0.000431,0.004701
9497000,0.0324,0.013523,0.002678,0.000431,0.004584
9498000,0.0324,0.013523,0.002678,0.000431,0.094845
9499000,0.0324,0.013523,0.002678,0.000431,0.042545
9500000,0.0324,0.013523,0.002678,0.000431,0.004701
9501000,0.0324,0.013523,0.002678,0.000431,0.004701
9502000,0.0324,0.013523,0.002678,0.000431,0.004701
9503000,0.0324,0.013523,0.002678,0.000431,0.004701
9504000,0.0324,0.013523,0.002678,0.000431,0.012340
9505000,0.0324,0.013523,0.002678,0.000431,0.019862
9506000,0.0324,0.013523,0.002678,0.000431,0.004701
9507000,0.0324,0.013523,0.002678,0.000431,0.027267
9508000,0.0324,0.013523,0.002678,0.000431,0.004701
9509000,0.0324,0.013523,0.002678,0.000431,0.004701
9510000,0.0324,0.013523,0.002678,0.000431,0.012223
9511000,0.0324,0.013523,0.002678,0.000431,0.027267
9512000,0.0324,0.013523,0.002678,0.000431,0.035023
9513000,0.0324,0.013523,0.002678,0.000431,0.004701
9514000,0.0324,0.013523,0.002678,0.000431,0.004701
9515000,0.0324,0.013523,0.002678,0.000431,0.004701
9516000,0.0324,0.013523,0.002678,0.000431,0.004701
9517000,0.0324,0.013523,0.002678,0.000431,0.031145
9518000,0.0324,0.013523,0.002678,0.000431,0.077098
9519000,0.0324,0.013523,0.002678,0.000431,0.048539
9520000,0.0324,0.013523,0.002678,0.000431,0.004466
9521000,0.0324,0.013523,0.002678,0.000431,0.004701
9522000,0.0324,0.013523,0.002678,0.000431,0.004701
9523000,0.0324,0.013523,0.002678,0.000431,0.009872
9524000,0.0324,0.013523,0.002678,0.000431,0.057236
9525000,0.0324,0.013523,0.002678,0.000431,0.078626
9526000,0.0324,0.013523,0.002678,0.000431,0.009520
9527000,0.0324,0.013523,0.002678,0.000431,0.041487
9528000,0.0324,0.013523,0.002678,0.000431,0.004584
9529000,0.0324,0.013523,0.002678,0.000431,0.004584
9530000,0.0324,0.013523,0.002678,0.000431,0.004701
9531000,0.0324,0.013523,0.002678,0.000431,0.004701
9532000,0.0324,0.013523,0.002678,0.000431,0.102485
9533000,0.0324,0.013523,0.002678,0.000431,0.072397
9534000,0.0324,0.013523,0.002678,0.000431,0.004466
9535000,0.0324,0.013523,0.002678,0.000431,0.004701
9536000,0.0324,0.013523,0.002678,0.000431,0.034788
9537000,0.0324,0.013523,0.002678,0.000431,0.042310
9538000,0.0324,0.013523,0.002678,0.000431,0.004701
9539000,0.0324,0.013523,0.002678,0.000431,0.004701
9540000,0.0324,0.013523,0.002678,0.000431,0.004701
9541000,0.0324,0.013523,0.002678,0.000431,0.004701
9542000,0.0324,0.013523,0.002678,0.000431,0.004701
9543000,0.0324,0.013523,0.002678,0.000431,0.064876
9544000,0.0324,0.013523,0.002678,0.000431,0.012223
9545000,0.0324,0.013523,0.002678,0.000431,0.064876
9546000,0.0324,0.013523,0.002678,0.000431,0.034788
9547000,0.0324,0.013523,0.002678,0.000431,0.004584
9548000,0.0324,0.013523,0.002678,0.000431,0.004584
9549000,0.0324,0.013523,0.002678,0.000431,0.019862
9550000,0.0324,0.013523,0.002678,0.000431,0.041252
9551000,0.0324,0.013523,0.002678,0.000431,0.010342
9552000,0.0324,0.013523,0.002678,0.000431,0.028559
9553000,0.0324,0.013523,0.002678,0.000431,0.006464
9554000,0.0324,0.013523,0.002678,0.000431,0.004701
9555000,0.0324,0.013523,0.002678,0.000431,0.004701
9556000,0.0324,0.013523,0.002678,0.000431,0.012223
9557000,0.0324,0.013523,0.002678,0.000431,0.012223
9558000,0.0324,0.013523,0.002678,0.000431,0.019745
9559000,0.0324,0.013523,0.002678,0.000431,0.094258
9560000,0.0324,0.013523,0.002678,0.000431,0.005171
9561000,0.0324,0.013523,0.002678,0.000431,0.004701
9562000,0.0324,0.013523,0.002678,0.000431,0.004701
9563000,0.0324,0.013523,0.002678,0.000431,0.004701
9564000,0.0324,0.013523,0.002678,0.000431,0.004936
9565000,0.0324,0.013523,0.002678,0.000431,0.004819
9566000,0.0324,0.013523,0.002678,0.000431,0.004819
9567000,0.0324,0.013523,0.002678,0.000431,0.004701
9568000,0.0324,0.013523,0.002678,0.000431,0.004701
9569000,0.0324,0.013523,0.002678,0.000431,0.012223
9570000,0.0324,0.013523,0.002678,0.000431,0.060292
9571000,0.0324,0.013523,0.002678,0.000431,0.024328
9572000,0.0324,0.013523,0.002678,0.000431,0.034788
9573000,0.0324,0.013523,0.002678,0.000431,0.004701
9574000,0.0324,0.013523,0.002678,0.000431,0.004466
9575000,0.0324,0.013523,0.002678,0.000431,0.004701
9576000,0.0324,0.013523,0.002678,0.000431,0.004701
9577000,0.0324,0.013523,0.002678,0.000431,0.008462
9578000,0.0324,0.013523,0.002678,0.000431,0.008462
9579000,0.0324,0.013523,0.002678,0.000431,0.012223
9580000,0.0324,0.013523,0.002678,0.000431,0.004701
9581000,0.0324,0.013523,0.002678,0.000431,0.004701
9582000,0.0324,0.013523,0.002678,0.000431,0.064876
9583000,0.0324,0.013523,0.002678,0.000431,0.027267
9584000,0.0324,0.013523,0.002678,0.000431,0.004466
9585000,0.0324,0.013523,0.002678,0.000431,0.065111
9586000,0.0324,0.013523,0.002678,0.000431,0.004701
9587000,0.0324,0.013523,0.002678,0.000431,0.004584
9588000,0.0324,0.013523,0.002678,0.000431,0.012105
9589000,0.0324,0.013523,0.002678,0.000431,0.012223
9590000,0.0324,0.013523,0.002678,0.000431,0.018099
9591000,0.0324,0.013523,0.002678,0.000431,0.044191
9592000,0.0324,0.013523,0.002678,0.000431,0.004701
9593000,0.0324,0.013523,0.002678,0.000431,0.004701
9594000,0.0324,0.013523,0.002678,0.000431,0.004701
9595000,0.0324,0.013523,0.002678,0.000431,0.019745
9596000,0.0324,0.013523,0.002678,0.000431,0.027267
9597000,0.0324,0.013523,0.002678,0.000431,0.004701
9598000,0.0324,0.013523,0.002678,0.000431,0.004701
9599000,0.0324,0.013523,0.002678,0.000431,0.004701
9600000,0.0324,0.013523,0.002678,0.000431,0.004466
9601000,0.0324,0.013523,0.002678,0.000431,0.012223
9602000,0.0324,0.013523,0.002678,0.000431,0.004701
9603000,0.0324,0.013523,0.002678,0.000431,0.012223
9604000,0.0324,0.013523,0.002678,0.000431,0.004701
9605000,0.0324,0.013523,0.002678,0.000431,0.004701
9606000,0.0324,0.013523,0.002678,0.000431,0.004701
9607000,0.0324,0.013523,0.002678,0.000431,0.004701
9608000,0.0324,0.013523,0.002678,0.000431,0.004936
9609000,0.0324,0.013523,0.002678,0.000431,0.012223
9610000,0.0324,0.013523,0.002678,0.000431,0.069224
9611000,0.0324,0.013523,0.002678,0.000431,0.007874
9612000,0.0324,0.013523,0.002678,0.000431,0.004701
9613000,0.0324,0.013523,0.002678,0.000431,0.004701
9614000,0.0324,0.013523,0.002678,0.000431,0.057236
9615000,0.0324,0.013523,0.002678,0.000431,0.012105
9616000,0.0324,0.013523,0.002678,0.000431,0.012223
9617000,0.0324,0.013523,0.002678,0.000431,0.012223
9618000,0.0324,0.013523,0.002678,0.000431,0.004701
9619000,0.0324,0.013523,0.002678,0.000431,0.004701
9620000,0.0324,0.013523,0.002678,0.000431,0.005406
9621000,0.0324,0.013523,0.002678,0.000431,0.049127
9622000,0.0324,0.013523,0.002678,0.000431,0.011988
9623000,0.0324,0.013523,0.002678,0.000431,0.019745
9624000,0.0324,0.013523,0.002678,0.000431,0.004584
9625000,0.0324,0.013523,0.002678,0.000431,0.004584
9626000,0.0324,0.013523,0.002678,0.000431,0.004701
9627000,0.0324,0.013523,0.002678,0.000431,0.004701
9628000,0.0324,0.013523,0.002678,0.000431,0.004701
9629000,0.0324,0.013523,0.002678,0.000431,0.025974
9630000,0.0324,0.013523,0.002678,0.000431,0.021038
9631000,0.0324,0.013523,0.002678,0.000431,0.004701
9632000,0.0324,0.013523,0.002678,0.000431,0.004701
9633000,0.0324,0.013523,0.002678,0.000431,0.004701
9634000,0.0324,0.013523,0.002678,0.000431,0.004701
9635000,0.0324,0.013523,0.002678,0.000431,0.004701
9636000,0.0324,0.013523,0.002678,0.000431,0.108243
9637000,0.0324,0.013523,0.002678,0.000431,0.014221
9638000,0.0324,0.013523,0.002678,0.000431,0.004701
9639000,0.0324,0.013523,0.002678,0.000431,0.004701
9640000,0.0324,0.013523,0.002678,0.000431,0.019510
9641000,0.0324,0.013523,0.002678,0.000431,0.019157
9642000,0.0324,0.013523,0.002678,0.000431,0.072985
9643000,0.0324,0.013523,0.002678,0.000431,0.012458
9644000,0.0324,0.013523,0.002678,0.000431,0.004701
9645000,0.0324,0.013523,0.002678,0.000431,0.004701
9646000,0.0324,0.013523,0.002678,0.000431,0.032673
9647000,0.0324,0.013523,0.002678,0.000431,0.014338
9648000,0.0324,0.013523,0.002678,0.000431,0.007992
9649000,0.0324,0.013523,0.002678,0.000431,0.016454
9650000,0.0324,0.013523,0.002678,0.000431,0.004701
9651000,0.0324,0.013523,0.002678,0.000431,0.004701
9652000,0.0324,0.013523,0.002678,0.000431,0.004701
9653000,0.0324,0.013523,0.002678,0.000431,0.012458
9654000,0.0324,0.013523,0.002678,0.000431,0.004584
9655000,0.0324,0.013523,0.002678,0.000431,0.057236
9656000,0.0324,0.013523,0.002678,0.000431,0.027267
9657000,0.0324,0.013523,0.002678,0.000431,0.004701
9658000,0.0324,0.013523,0.002678,0.000431,0.004701
9659000,0.0324,0.013523,0.002678,0.000431,0.040077
9660000,0.0324,0.013523,0.002678,0.000431,0.006934
9661000,0.0324,0.013523,0.002678,0.000431,0.004701
9662000,0.0324,0.013523,0.002678,0.000431,0.042075
9663000,0.0324,0.013523,0.002678,0.000431,0.004701
9664000,0.0324,0.013523,0.002678,0.000431,0.004584
9665000,0.0324,0.013523,0.002678,0.000431,0.004584
9666000,0.0324,0.013523,0.002678,0.000431,0.019745
9667000,0.0324,0.013523,0.002678,0.000431,0.004701
9668000,0.0324,0.013523,0.002678,0.000431,0.038549
9669000,0.0324,0.013523,0.002678,0.000431,0.046071
9670000,0.0324,0.013523,0.002678,0.000431,0.004701
9671000,0.0324,0.013523,0.002678,0.000431,0.004701
9672000,0.0324,0.013523,0.002678,0.000431,0.004701
9673000,0.0324,0.013523,0.002678,0.000431,0.004701
9674000,0.0324,0.013523,0.002678,0.000431,0.019745
9675000,0.0324,0.013523,0.002678,0.000431,0.030910
9676000,0.0324,0.013523,0.002678,0.000431,0.008580
9677000,0.0324,0.013523,0.002678,0.000431,0.004701
9678000,0.0324,0.013523,0.002678,0.000431,0.004701
9679000,0.0324,0.013523,0.002678,0.000431,0.004701
9680000,0.0324,0.013523,0.002678,0.000431,0.004584
9681000,0.0324,0.013523,0.002678,0.000431,0.008345
9682000,0.0324,0.013523,0.002678,0.000431,0.061115
9683000,0.0324,0.013523,0.002678,0.000431,0.004701
9684000,0.0324,0.013523,0.002678,0.000431,0.004701
9685000,0.0324,0.013523,0.002678,0.000431,0.019745
9686000,0.0324,0.013523,0.002678,0.000431,0.004701
9687000,0.0324,0.013523,0.002678,0.000431,0.027267
9688000,0.0324,0.013523,0.002678,0.000431,0.019745
9689000,0.0324,0.013523,0.002678,0.000431,0.004701
9690000,0.0324,0.013523,0.002678,0.000431,0.004701
9691000,0.0324,0.013523,0.002678,0.000431,0.018452
9692000,0.0324,0.013523,0.002678,0.000431,0.005994
9693000,0.0324,0.013523,0.002678,0.000431,0.004701
9694000,0.0324,0.013523,0.002678,0.000431,0.015866
9695000,0.0324,0.013523,0.002678,0.000431,0.008345
9696000,0.0324,0.013523,0.002678,0.000431,0.004701
9697000,0.0324,0.013523,0.002678,0.000431,0.004701
9698000,0.0324,0.013523,0.002678,0.000431,0.004701
9699000,0.0324,0.013523,0.002678,0.000431,0.004701
9700000,0.0324,0.013523,0.002678,0.000431,0.012223
9701000,0.0324,0.013523,0.002678,0.000431,0.083445
9702000,0.0324,0.013523,0.002678,0.000431,0.008580
9703000,0.0324,0.013523,0.002678,0.000431,0.004584
9704000,0.0324,0.013523,0.002678,0.000431,0.042193
9705000,0.0324,0.013523,0.002678,0.000431,0.012105
9706000,0.0324,0.013523,0.002678,0.000431,0.004701
9707000,0.0324,0.013523,0.002678,0.000431,0.008462
9708000,0.0324,0.013523,0.002678,0.000431,0.041723
9709000,0.0324,0.013523,0.002678,0.000431,0.009050
9710000,0.0324,0.013523,0.002678,0.000431,0.004701
9711000,0.0324,0.013523,0.002678,0.000431,0.004701
9712000,0.0324,0.013523,0.002678,0.000431,0.004701
9713000,0.0324,0.013523,0.002678,0.000431,0.027267
9714000,0.0324,0.013523,0.002678,0.000431,0.004701
9715000,0.0324,0.013523,0.002678,0.000431,0.004701
9716000,0.0324,0.013523,0.002678,0.000431,0.004701
9717000,0.0324,0.013523,0.002678,0.000431,0.012223
9718000,0.0324,0.013523,0.002678,0.000431,0.012223
9719000,0.0324,0.013523,0.002678,0.000431,0.038314
9720000,0.0324,0.013523,0.002678,0.000431,0.008580
9721000,0.0324,0.013523,0.002678,0.000431,0.027149
9722000,0.0324,0.013523,0.002678,0.000431,0.004701
9723000,0.0324,0.013523,0.002678,0.000431,0.004701
9724000,0.0324,0.013523,0.002678,0.000431,0.004701
9725000,0.0324,0.013523,0.002678,0.000431,0.004701
9726000,0.0324,0.013523,0.002678,0.000431,0.034788
9727000,0.0324,0.013523,0.002678,0.000431,0.012223
9728000,0.0324,0.013523,0.002678,0.000431,0.004701
9729000,0.0324,0.013523,0.002678,0.000431,0.004701
9730000,0.0324,0.013523,0.002678,0.000431,0.012223
9731000,0.0324,0.013523,0.002678,0.000431,0.004701
9732000,0.0324,0.013523,0.002678,0.000431,0.004701
9733000,0.0324,0.013523,0.002678,0.000431,0.004701
9734000,0.0324,0.013523,0.002678,0.000431,0.004584
9735000,0.0324,0.013523,0.002678,0.000431,0.004584
9736000,0.0324,0.013523,0.002678,0.000431,0.008462
9737000,0.0324,0.013523,0.002678,0.000431,0.008462
9738000,0.0324,0.013523,0.002678,0.000431,0.007992
9739000,0.0324,0.013523,0.002678,0.000431,0.016454
9740000,0.0324,0.013523,0.002678,0.000431,0.012223
9741000,0.0324,0.013523,0.002678,0.000431,0.049832
9742000,0.0324,0.013523,0.002678,0.000431,0.004584
9743000,0.0324,0.013523,0.002678,0.000431,0.079802
9744000,0.0324,0.013523,0.002678,0.000431,0.004701
9745000,0.0324,0.013523,0.002678,0.000431,0.042075
9746000,0.0324,0.013523,0.002678,0.000431,0.012223
9747000,0.0324,0.013523,0.002678,0.000431,0.012223
9748000,0.0324,0.013523,0.002678,0.000431,0.004701
9749000,0.0324,0.013523,0.002678,0.000431,0.008697
9750000,0.0324,0.013523,0.002678,0.000431,0.038314
9751000,0.0324,0.013523,0.002678,0.000431,0.004701
9752000,0.0324,0.013523,0.002678,0.000431,0.004701
9753000,0.0324,0.013523,0.002678,0.000431,0.004701
9754000,0.0324,0.013523,0.002678,0.000431,0.034788
9755000,0.0324,0.013523,0.002678,0.000431,0.004701
9756000,0.0324,0.013523,0.002678,0.000431,0.027149
9757000,0.0324,0.013523,0.002678,0.000431,0.004584
9758000,0.0324,0.013523,0.002678,0.000431,0.019745
9759000,0.0324,0.013523,0.002678,0.000431,0.013398
9760000,0.0324,0.013523,0.002678,0.000431,0.116000
9761000,0.0324,0.013523,0.002678,0.000431,0.034671
9762000,0.0324,0.013523,0.002678,0.000431,0.019745
9763000,0.0324,0.013523,0.002678,0.000431,0.004701
9764000,0.0324,0.013523,0.002678,0.000431,0.031498
9765000,0.0324,0.013523,0.002678,0.000431,0.007992
9766000,0.0324,0.013523,0.002678,0.000431,0.004701
9767000,0.0324,0.013523,0.002678,0.000431,0.019745
9768000,0.0324,0.013523,0.002678,0.000431,0.004701
9769000,0.0324,0.013523,0.002678,0.000431,0.004701
9770000,0.0324,0.013523,0.002678,0.000431,0.004701
9771000,0.0324,0.013523,0.002678,0.000431,0.004701
9772000,0.0324,0.013523,0.002678,0.000431,0.006817
9773000,0.0324,0.013523,0.002678,0.000431,0.017629
9774000,0.0324,0.013523,0.002678,0.000431,0.034788
9775000,0.0324,0.013523,0.002678,0.000431,0.042310
9776000,0.0324,0.013523,0.002678,0.000431,0.004584
9777000,0.0324,0.013523,0.002678,0.000431,0.034671
9778000,0.0324,0.013523,0.002678,0.000431,0.004701
9779000,0.0324,0.013523,0.002678,0.000431,0.008462
9780000,0.0324,0.013523,0.002678,0.000431,0.015984
9781000,0.0324,0.013523,0.002678,0.000431,0.004701
9782000,0.0324,0.013523,0.002678,0.000431,0.004701
9783000,0.0324,0.013523,0.002678,0.000431,0.005406
9784000,0.0324,0.013523,0.002678,0.000431,0.011518
9785000,0.0324,0.013523,0.002678,0.000431,0.011988
9786000,0.0324,0.013523,0.002678,0.000431,0.015984
9787000,0.0324,0.013523,0.002678,0.000431,0.008462
9788000,0.0324,0.013523,0.002678,0.000431,0.012223
9789000,0.0324,0.013523,0.002678,0.000431,0.004701
9790000,0.0324,0.013523,0.002678,0.000431,0.047011
9791000,0.0324,0.013523,0.002678,0.000431,0.037609
9792000,0.0324,0.013523,0.002678,0.000431,0.004701
9793000,0.0324,0.013523,0.002678,0.000431,0.049832
9794000,0.0324,0.013523,0.002678,0.000431,0.004701
9795000,0.0324,0.013523,0.002678,0.000431,0.004701
9796000,0.0324,0.013523,0.002678,0.000431,0.004701
9797000,0.0324,0.013523,0.002678,0.000431,0.004466
9798000,0.0324,0.013523,0.002678,0.000431,0.018805
9799000,0.0324,0.013523,0.002678,0.000431,0.070752
9800000,0.0324,0.013523,0.002678,0.000431,0.060057
9801000,0.0324,0.013523,0.002678,0.000431,0.049949
9802000,0.0324,0.013523,0.002678,0.000431,0.004701
9803000,0.0324,0.013523,0.002678,0.000431,0.004701
9804000,0.0324,0.013523,0.002678,0.000431,0.004701
9805000,0.0324,0.013523,0.002678,0.000431,0.052653
9806000,0.0324,0.013523,0.002678,0.000431,0.039489
9807000,0.0324,0.013523,0.002678,0.000431,0.036904
9808000,0.0324,0.013523,0.002678,0.000431,0.010107
9809000,0.0324,0.013523,0.002678,0.000431,0.004701
9810000,0.0324,0.013523,0.002678,0.000431,0.049832
9811000,0.0324,0.013523,0.002678,0.000431,0.007404
9812000,0.0324,0.013523,0.002678,0.000431,0.065698
9813000,0.0324,0.013523,0.002678,0.000431,0.031027
9814000,0.0324,0.013523,0.002678,0.000431,0.049832
9815000,0.0324,0.013523,0.002678,0.000431,0.004701
9816000,0.0324,0.013523,0.002678,0.000431,0.021038
9817000,0.0324,0.013523,0.002678,0.000431,0.010930
9818000,0.0324,0.013523,0.002678,0.000431,0.004701
9819000,0.0324,0.013523,0.002678,0.000431,0.019745
9820000,0.0324,0.013523,0.002678,0.000431,0.012223
9821000,0.0324,0.013523,0.002678,0.000431,0.004701
9822000,0.0324,0.013523,0.002678,0.000431,0.004701
9823000,0.0324,0.013523,0.002678,0.000431,0.012223
9824000,0.0324,0.013523,0.002678,0.000431,0.004701
9825000,0.0324,0.013523,0.002678,0.000431,0.024798
9826000,0.0324,0.013523,0.002678,0.000431,0.006934
9827000,0.0324,0.013523,0.002678,0.000431,0.004701
9828000,0.0324,0.013523,0.002678,0.000431,0.004701
9829000,0.0324,0.013523,0.002678,0.000431,0.004701
9830000,0.0324,0.013523,0.002678,0.000431,0.004701
9831000,0.0324,0.013523,0.002678,0.000431,0.004701
9832000,0.0324,0.013523,0.002678,0.000431,0.012223
9833000,0.0324,0.013523,0.002678,0.000431,0.012223
9834000,0.0324,0.013523,0.002678,0.000431,0.004701
9835000,0.0324,0.013523,0.002678,0.000431,0.004701
9836000,0.0324,0.013523,0.002678,0.000431,0.019745
9837000,0.0324,0.013523,0.002678,0.000431,0.004466
9838000,0.0324,0.013523,0.002678,0.000431,0.012223
9839000,0.0324,0.013523,0.002678,0.000431,0.004701
9840000,0.0324,0.013523,0.002678,0.000431,0.027267
9841000,0.0324,0.013523,0.002678,0.000431,0.004466
9842000,0.0324,0.013523,0.002678,0.000431,0.012223
9843000,0.0324,0.013523,0.002678,0.000431,0.004701
9844000,0.0324,0.013523,0.002678,0.000431,0.027267
9845000,0.0324,0.013523,0.002678,0.000431,0.004701
9846000,0.0324,0.013523,0.002678,0.000431,0.004701
9847000,0.0324,0.013523,0.002678,0.000431,0.004701
9848000,0.0324,0.013523,0.002678,0.000431,0.004701
9849000,0.0324,0.013523,0.002678,0.000431,0.049832
9850000,0.0324,0.013523,0.002678,0.000431,0.019745
9851000,0.0324,0.013523,0.002678,0.000431,0.008227
9852000,0.0324,0.013523,0.002678,0.000431,0.008462
9853000,0.0324,0.013523,0.002678,0.000431,0.004701
9854000,0.0324,0.013523,0.002678,0.000431,0.004701
9855000,0.0324,0.013523,0.002678,0.000431,0.067696
9856000,0.0324,0.013523,0.002678,0.000431,0.009402
9857000,0.0324,0.013523,0.002678,0.000431,0.012223
9858000,0.0324,0.013523,0.002678,0.000431,0.034788
9859000,0.0324,0.013523,0.002678,0.000431,0.004701
9860000,0.0324,0.013523,0.002678,0.000431,0.004701
9861000,0.0324,0.013523,0.002678,0.000431,0.004701
9862000,0.0324,0.013523,0.002678,0.000431,0.057354
9863000,0.0324,0.013523,0.002678,0.000431,0.004701
9864000,0.0324,0.013523,0.002678,0.000431,0.042310
9865000,0.0324,0.013523,0.002678,0.000431,0.019510
9866000,0.0324,0.013523,0.002678,0.000431,0.004701
9867000,0.0324,0.013523,0.002678,0.000431,0.019745
9868000,0.0324,0.013523,0.002678,0.000431,0.004701
9869000,0.0324,0.013523,0.002678,0.000431,0.004701
9870000,0.0324,0.013523,0.002678,0.000431,0.010695
9871000,0.0324,0.013523,0.002678,0.000431,0.031968
9872000,0.0324,0.013523,0.002678,0.000431,0.031615
9873000,0.0324,0.013523,0.002678,0.000431,0.004701
9874000,0.0324,0.013523,0.002678,0.000431,0.027267
9875000,0.0324,0.013523,0.002678,0.000431,0.004701
9876000,0.0324,0.013523,0.002678,0.000431,0.012223
9877000,0.0324,0.013523,0.002678,0.000431,0.057119
9878000,0.0324,0.013523,0.002678,0.000431,0.004701
9879000,0.0324,0.013523,0.002678,0.000431,0.004701
9880000,0.0324,0.013523,0.002678,0.000431,0.012223
9881000,0.0324,0.013523,0.002678,0.000431,0.004466
9882000,0.0324,0.013523,0.002678,0.000431,0.013398
9883000,0.0324,0.013523,0.002678,0.000431,0.011048
9884000,0.0324,0.013523,0.002678,0.000431,0.023858
9885000,0.0324,0.013523,0.002678,0.000431,0.105893
9886000,0.0324,0.013523,0.002678,0.000431,0.011518
9887000,0.0324,0.013523,0.002678,0.000431,0.012693
9888000,0.0324,0.013523,0.002678,0.000431,0.004701
9889000,0.0324,0.013523,0.002678,0.000431,0.004701
9890000,0.0324,0.013523,0.002678,0.000431,0.027267
9891000,0.0324,0.013523,0.002678,0.000431,0.011988
9892000,0.0324,0.013523,0.002678,0.000431,0.004701
9893000,0.0324,0.013523,0.002678,0.000431,0.012223
9894000,0.0324,0.013523,0.002678,0.000431,0.004701
9895000,0.0324,0.013523,0.002678,0.000431,0.012223
9896000,0.0324,0.013523,0.002678,0.000431,0.004701
9897000,0.0324,0.013523,0.002678,0.000431,0.012340
9898000,0.0324,0.013523,0.002678,0.000431,0.012340
9899000,0.0324,0.013523,0.002678,0.000431,0.019275
9900000,0.0324,0.013523,0.002678,0.000431,0.012693
9901000,0.0324,0.013523,0.002678,0.000431,0.004701
9902000,0.0324,0.013523,0.002678,0.000431,0.087441
9903000,0.0324,0.013523,0.002678,0.000431,0.004701
9904000,0.0324,0.013523,0.002678,0.000431,0.012223
9905000,0.0324,0.013523,0.002678,0.000431,0.004466
9906000,0.0324,0.013523,0.002678,0.000431,0.019745
9907000,0.0324,0.013523,0.002678,0.000431,0.004701
9908000,0.0324,0.013523,0.002678,0.000431,0.040430
9909000,0.0324,0.013523,0.002678,0.000431,0.021625
9910000,0.0324,0.013523,0.002678,0.000431,0.070752
9911000,0.0324,0.013523,0.002678,0.000431,0.013633
9912000,0.0324,0.013523,0.002678,0.000431,0.004701
9913000,0.0324,0.013523,0.002678,0.000431,0.004701
9914000,0.0324,0.013523,0.002678,0.000431,0.004701
9915000,0.0324,0.013523,0.002678,0.000431,0.109771
9916000,0.0324,0.013523,0.002678,0.000431,0.004701
9917000,0.0324,0.013523,0.002678,0.000431,0.004701
9918000,0.0324,0.013523,0.002678,0.000431,0.004701
9919000,0.0324,0.013523,0.002678,0.000431,0.019745
9920000,0.0324,0.013523,0.002678,0.000431,0.004701
9921000,0.0324,0.013523,0.002678,0.000431,0.018452
9922000,0.0324,0.013523,0.002678,0.000431,0.020802
9923000,0.0324,0.013523,0.002678,0.000431,0.049832
9924000,0.0324,0.013523,0.002678,0.000431,0.004701
9925000,0.0324,0.013523,0.002678,0.000431,0.004701
9926000,0.0324,0.013523,0.002678,0.000431,0.004701
9927000,0.0324,0.013523,0.002678,0.000431,0.004701
9928000,0.0324,0.013523,0.002678,0.000431,0.012223
9929000,0.0324,0.013523,0.002678,0.000431,0.060292
9930000,0.0324,0.013523,0.002678,0.000431,0.031850
9931000,0.0324,0.013523,0.002678,0.000431,0.012223
9932000,0.0324,0.013523,0.002678,0.000431,0.072397
9933000,0.0324,0.013523,0.002678,0.000431,0.004701
9934000,0.0324,0.013523,0.002678,0.000431,0.011283
9935000,0.0324,0.013523,0.002678,0.000431,0.020685
9936000,0.0324,0.013523,0.002678,0.000431,0.019745
9937000,0.0324,0.013523,0.002678,0.000431,0.004701
9938000,0.0324,0.013523,0.002678,0.000431,0.004701
9939000,0.0324,0.013523,0.002678,0.000431,0.004701
9940000,0.0324,0.013523,0.002678,0.000431,0.004466
9941000,0.0324,0.013523,0.002678,0.000431,0.012223
9942000,0.0324,0.013523,0.002678,0.000431,0.045483
9943000,0.0324,0.013523,0.002678,0.000431,0.016571
9944000,0.0324,0.013523,0.002678,0.000431,0.012223
9945000,0.0324,0.013523,0.002678,0.000431,0.042310
9946000,0.0324,0.013523,0.002678,0.000431,0.004701
9947000,0.0324,0.013523,0.002678,0.000431,0.011518
9948000,0.0324,0.013523,0.002678,0.000431,0.012693
9949000,0.0324,0.013523,0.002678,0.000431,0.004701
9950000,0.0324,0.013523,0.002678,0.000431,0.004701
9951000,0.0324,0.013523,0.002678,0.000431,0.004701
9952000,0.0324,0.013523,0.002678,0.000431,0.004584
9953000,0.0324,0.013523,0.002678,0.000431,0.004584
9954000,0.0324,0.013523,0.002678,0.000431,0.046071
9955000,0.0324,0.013523,0.002678,0.000431,0.068636
9956000,0.0324,0.013523,0.002678,0.000431,0.004701
9957000,0.0324,0.013523,0.002678,0.000431,0.019745
9958000,0.0324,0.013523,0.002678,0.000431,0.004701
9959000,0.0324,0.013523,0.002678,0.000431,0.004701
9960000,0.0324,0.013523,0.002678,0.000431,0.012223
9961000,0.0324,0.013523,0.002678,0.000431,0.072162
9962000,0.0324,0.013523,0.002678,0.000431,0.012223
9963000,0.0324,0.013523,0.002678,0.000431,0.004701
9964000,0.0324,0.013523,0.002678,0.000431,0.042310
9965000,0.0324,0.013523,0.002678,0.000431,0.004701
9966000,0.0324,0.013523,0.002678,0.000431,0.004701
9967000,0.0324,0.013523,0.002678,0.000431,0.023623
9968000,0.0324,0.013523,0.002678,0.000431,0.023623
9969000,0.0324,0.013523,0.002678,0.000431,0.004701
9970000,0.0324,0.013523,0.002678,0.000431,0.012223
9971000,0.0324,0.013523,0.002678,0.000431,0.004701
9972000,0.0324,0.013523,0.002678,0.000431,0.004701
9973000,0.0324,0.013523,0.002678,0.000431,0.004701
9974000,0.0324,0.013523,0.002678,0.000431,0.098489
9975000,0.0324,0.013523,0.002678,0.000431,0.008462
9976000,0.0324,0.013523,0.002678,0.000431,0.006582
9977000,0.0324,0.013523,0.002678,0.000431,0.093082
9978000,0.0324,0.013523,0.002678,0.000431,0.004701
9979000,0.0324,0.013523,0.002678,0.000431,0.004701
9980000,0.0324,0.013523,0.002678,0.000431,0.012223
9981000,0.0324,0.013523,0.002678,0.000431,0.012223
9982000,0.0324,0.013523,0.002678,0.000431,0.004701
9983000,0.0324,0.013523,0.002678,0.000431,0.034788
9984000,0.0324,0.013523,0.002678,0.000431,0.004701
9985000,0.0324,0.013523,0.002678,0.000431,0.004701
9986000,0.0324,0.013523,0.002678,0.000431,0.042310
9987000,0.0324,0.013523,0.002678,0.000431,0.012223
9988000,0.0324,0.013523,0.002678,0.000431,0.004466
9989000,0.0324,0.013523,0.002678,0.000431,0.011753
9990000,0.0324,0.013523,0.002678,0.000431,0.020215
9991000,0.0324,0.013523,0.002678,0.000431,0.004701
9992000,0.0324,0.013523,0.002678,0.000431,0.004701
9993000,0.0324,0.013523,0.002678,0.000431,0.042075
9994000,0.0324,0.013523,0.002678,0.000431,0.049832
9995000,0.0324,0.013523,0.002678,0.000431,0.004701
9996000,0.0324,0.013523,0.002678,0.000431,0.042310
9997000,0.0324,0.013523,0.002678,0.000431,0.004701
9998000,0.0324,0.013523,0.002678,0.000431,0.004701
9999000,0.0324,0.013523,0.002678,0.000431,0.098959
