Cycle,Area(mm^2),PeakDynamic(W),SubthresholdLeakage(W),GateLeakage(W),RunTimeDynamic(W)
4000000,0.0324,0.013523,0.002678,0.000431,0.004584
4001000,0.0324,0.013523,0.002678,0.000431,0.003643
4002000,0.0324,0.013523,0.002678,0.000431,0.003526
4003000,0.0324,0.013523,0.002678,0.000431,0.004231
4004000,0.0324,0.013523,0.002678,0.000431,0.003408
4005000,0.0324,0.013523,0.002678,0.000431,0.003761
4006000,0.0324,0.013523,0.002678,0.000431,0.004231
4007000,0.0324,0.013523,0.002678,0.000431,0.003291
4008000,0.0324,0.013523,0.002678,0.000431,0.004113
4009000,0.0324,0.013523,0.002678,0.000431,0.003526
4010000,0.0324,0.013523,0.002678,0.000431,0.003291
4011000,0.0324,0.013523,0.002678,0.000431,0.003878
4012000,0.0324,0.013523,0.002678,0.000431,0.003761
4013000,0.0324,0.013523,0.002678,0.000431,0.003643
4014000,0.0324,0.013523,0.002678,0.000431,0.003996
4015000,0.0324,0.013523,0.002678,0.000431,0.004113
4016000,0.0324,0.013523,0.002678,0.000431,0.003643
4017000,0.0324,0.013523,0.002678,0.000431,0.003643
4018000,0.0324,0.013523,0.002678,0.000431,0.003761
4019000,0.0324,0.013523,0.002678,0.000431,0.004113
4020000,0.0324,0.013523,0.002678,0.000431,0.003878
4021000,0.0324,0.013523,0.002678,0.000431,0.003761
4022000,0.0324,0.013523,0.002678,0.000431,0.004113
4023000,0.0324,0.013523,0.002678,0.000431,0.003408
4024000,0.0324,0.013523,0.002678,0.000431,0.004231
4025000,0.0324,0.013523,0.002678,0.000431,0.003878
4026000,0.0324,0.013523,0.002678,0.000431,0.003526
4027000,0.0324,0.013523,0.002678,0.000431,0.003996
4028000,0.0324,0.013523,0.002678,0.000431,0.003878
4029000,0.0324,0.013523,0.002678,0.000431,0.003643
4030000,0.0324,0.013523,0.002678,0.000431,0.003878
4031000,0.0324,0.013523,0.002678,0.000431,0.003408
4032000,0.0324,0.013523,0.002678,0.000431,0.003878
4033000,0.0324,0.013523,0.002678,0.000431,0.003996
4034000,0.0324,0.013523,0.002678,0.000431,0.003643
4035000,0.0324,0.013523,0.002678,0.000431,0.003761
4036000,0.0324,0.013523,0.002678,0.000431,0.003996
4037000,0.0324,0.013523,0.002678,0.000431,0.003761
4038000,0.0324,0.013523,0.002678,0.000431,0.003878
4039000,0.0324,0.013523,0.002678,0.000431,0.003643
4040000,0.0324,0.013523,0.002678,0.000431,0.003878
4041000,0.0324,0.013523,0.002678,0.000431,0.003643
4042000,0.0324,0.013523,0.002678,0.000431,0.003878
4043000,0.0324,0.013523,0.002678,0.000431,0.004113
4044000,0.0324,0.013523,0.002678,0.000431,0.003643
4045000,0.0324,0.013523,0.002678,0.000431,0.003761
4046000,0.0324,0.013523,0.002678,0.000431,0.004231
4047000,0.0324,0.013523,0.002678,0.000431,0.003761
4048000,0.0324,0.013523,0.002678,0.000431,0.004113
4049000,0.0324,0.013523,0.002678,0.000431,0.004113
4050000,0.0324,0.013523,0.002678,0.000431,0.003761
4051000,0.0324,0.013523,0.002678,0.000431,0.003761
4052000,0.0324,0.013523,0.002678,0.000431,0.003878
4053000,0.0324,0.013523,0.002678,0.000431,0.003643
4054000,0.0324,0.013523,0.002678,0.000431,0.004113
4055000,0.0324,0.013523,0.002678,0.000431,0.003408
4056000,0.0324,0.013523,0.002678,0.000431,0.004113
4057000,0.0324,0.013523,0.002678,0.000431,0.004113
4058000,0.0324,0.013523,0.002678,0.000431,0.003643
4059000,0.0324,0.013523,0.002678,0.000431,0.004113
4060000,0.0324,0.013523,0.002678,0.000431,0.003761
4061000,0.0324,0.013523,0.002678,0.000431,0.003643
4062000,0.0324,0.013523,0.002678,0.000431,0.003643
4063000,0.0324,0.013523,0.002678,0.000431,0.004113
4064000,0.0324,0.013523,0.002678,0.000431,0.003761
4065000,0.0324,0.013523,0.002678,0.000431,0.004113
4066000,0.0324,0.013523,0.002678,0.000431,0.003761
4067000,0.0324,0.013523,0.002678,0.000431,0.003643
4068000,0.0324,0.013523,0.002678,0.000431,0.003643
4069000,0.0324,0.013523,0.002678,0.000431,0.003878
4070000,0.0324,0.013523,0.002678,0.000431,0.003643
4071000,0.0324,0.013523,0.002678,0.000431,0.004113
4072000,0.0324,0.013523,0.002678,0.000431,0.003761
4073000,0.0324,0.013523,0.002678,0.000431,0.003526
4074000,0.0324,0.013523,0.002678,0.000431,0.004113
4075000,0.0324,0.013523,0.002678,0.000431,0.003996
4076000,0.0324,0.013523,0.002678,0.000431,0.003408
4077000,0.0324,0.013523,0.002678,0.000431,0.003761
4078000,0.0324,0.013523,0.002678,0.000431,0.003761
4079000,0.0324,0.013523,0.002678,0.000431,0.003408
4080000,0.0324,0.013523,0.002678,0.000431,0.003878
4081000,0.0324,0.013523,0.002678,0.000431,0.004349
4082000,0.0324,0.013523,0.002678,0.000431,0.003173
4083000,0.0324,0.013523,0.002678,0.000431,0.003643
4084000,0.0324,0.013523,0.002678,0.000431,0.004113
4085000,0.0324,0.013523,0.002678,0.000431,0.003526
4086000,0.0324,0.013523,0.002678,0.000431,0.003878
4087000,0.0324,0.013523,0.002678,0.000431,0.003643
4088000,0.0324,0.013523,0.002678,0.000431,0.003761
4089000,0.0324,0.013523,0.002678,0.000431,0.003761
4090000,0.0324,0.013523,0.002678,0.000431,0.003996
4091000,0.0324,0.013523,0.002678,0.000431,0.003761
4092000,0.0324,0.013523,0.002678,0.000431,0.003526
4093000,0.0324,0.013523,0.002678,0.000431,0.003761
4094000,0.0324,0.013523,0.002678,0.000431,0.003996
4095000,0.0324,0.013523,0.002678,0.000431,0.004113
4096000,0.0324,0.013523,0.002678,0.000431,0.003996
4097000,0.0324,0.013523,0.002678,0.000431,0.003526
4098000,0.0324,0.013523,0.002678,0.000431,0.003408
4099000,0.0324,0.013523,0.002678,0.000431,0.004466
4100000,0.0324,0.013523,0.002678,0.000431,0.003643
4101000,0.0324,0.013523,0.002678,0.000431,0.003526
4102000,0.0324,0.013523,0.002678,0.000431,0.003878
4103000,0.0324,0.013523,0.002678,0.000431,0.003643
4104000,0.0324,0.013523,0.002678,0.000431,0.003761
4105000,0.0324,0.013523,0.002678,0.000431,0.004113
4106000,0.0324,0.013523,0.002678,0.000431,0.003643
4107000,0.0324,0.013523,0.002678,0.000431,0.003761
4108000,0.0324,0.013523,0.002678,0.000431,0.003996
4109000,0.0324,0.013523,0.002678,0.000431,0.004113
4110000,0.0324,0.013523,0.002678,0.000431,0.003408
4111000,0.0324,0.013523,0.002678,0.000431,0.003878
4112000,0.0324,0.013523,0.002678,0.000431,0.003878
4113000,0.0324,0.013523,0.002678,0.000431,0.003761
4114000,0.0324,0.013523,0.002678,0.000431,0.003996
4115000,0.0324,0.013523,0.002678,0.000431,0.003996
4116000,0.0324,0.013523,0.002678,0.000431,0.003643
4117000,0.0324,0.013523,0.002678,0.000431,0.003996
4118000,0.0324,0.013523,0.002678,0.000431,0.004113
4119000,0.0324,0.013523,0.002678,0.000431,0.003878
4120000,0.0324,0.013523,0.002678,0.000431,0.003996
4121000,0.0324,0.013523,0.002678,0.000431,0.003878
4122000,0.0324,0.013523,0.002678,0.000431,0.003643
4123000,0.0324,0.013523,0.002678,0.000431,0.004231
4124000,0.0324,0.013523,0.002678,0.000431,0.003878
4125000,0.0324,0.013523,0.002678,0.000431,0.003173
4126000,0.0324,0.013523,0.002678,0.000431,0.003878
4127000,0.0324,0.013523,0.002678,0.000431,0.003878
4128000,0.0324,0.013523,0.002678,0.000431,0.003643
4129000,0.0324,0.013523,0.002678,0.000431,0.004113
4130000,0.0324,0.013523,0.002678,0.000431,0.003761
4131000,0.0324,0.013523,0.002678,0.000431,0.003761
4132000,0.0324,0.013523,0.002678,0.000431,0.003643
4133000,0.0324,0.013523,0.002678,0.000431,0.003878
4134000,0.0324,0.013523,0.002678,0.000431,0.003761
4135000,0.0324,0.013523,0.002678,0.000431,0.004349
4136000,0.0324,0.013523,0.002678,0.000431,0.003761
4137000,0.0324,0.013523,0.002678,0.000431,0.003643
4138000,0.0324,0.013523,0.002678,0.000431,0.003643
4139000,0.0324,0.013523,0.002678,0.000431,0.004349
4140000,0.0324,0.013523,0.002678,0.000431,0.003291
4141000,0.0324,0.013523,0.002678,0.000431,0.003761
4142000,0.0324,0.013523,0.002678,0.000431,0.004349
4143000,0.0324,0.013523,0.002678,0.000431,0.002938
4144000,0.0324,0.013523,0.002678,0.000431,0.003761
4145000,0.0324,0.013523,0.002678,0.000431,0.004113
4146000,0.0324,0.013523,0.002678,0.000431,0.003878
4147000,0.0324,0.013523,0.002678,0.000431,0.003173
4148000,0.0324,0.013523,0.002678,0.000431,0.004466
4149000,0.0324,0.013523,0.002678,0.000431,0.003761
4150000,0.0324,0.013523,0.002678,0.000431,0.003526
4151000,0.0324,0.013523,0.002678,0.000431,0.003996
4152000,0.0324,0.013523,0.002678,0.000431,0.003761
4153000,0.0324,0.013523,0.002678,0.000431,0.003526
4154000,0.0324,0.013523,0.002678,0.000431,0.004349
4155000,0.0324,0.013523,0.002678,0.000431,0.003643
4156000,0.0324,0.013523,0.002678,0.000431,0.003761
4157000,0.0324,0.013523,0.002678,0.000431,0.004113
4158000,0.0324,0.013523,0.002678,0.000431,0.003996
4159000,0.0324,0.013523,0.002678,0.000431,0.003643
4160000,0.0324,0.013523,0.002678,0.000431,0.003996
4161000,0.0324,0.013523,0.002678,0.000431,0.003761
4162000,0.0324,0.013523,0.002678,0.000431,0.004113
4163000,0.0324,0.013523,0.002678,0.000431,0.003996
4164000,0.0324,0.013523,0.002678,0.000431,0.003526
4165000,0.0324,0.013523,0.002678,0.000431,0.003408
4166000,0.0324,0.013523,0.002678,0.000431,0.003878
4167000,0.0324,0.013523,0.002678,0.000431,0.004113
4168000,0.0324,0.013523,0.002678,0.000431,0.003878
4169000,0.0324,0.013523,0.002678,0.000431,0.003761
4170000,0.0324,0.013523,0.002678,0.000431,0.003761
4171000,0.0324,0.013523,0.002678,0.000431,0.003761
4172000,0.0324,0.013523,0.002678,0.000431,0.004113
4173000,0.0324,0.013523,0.002678,0.000431,0.003878
4174000,0.0324,0.013523,0.002678,0.000431,0.004231
4175000,0.0324,0.013523,0.002678,0.000431,0.003173
4176000,0.0324,0.013523,0.002678,0.000431,0.002703
4177000,0.0324,0.013523,0.002678,0.000431,0.002938
4178000,0.0324,0.013523,0.002678,0.000431,0.003056
4179000,0.0324,0.013523,0.002678,0.000431,0.003173
4180000,0.0324,0.013523,0.002678,0.000431,0.003173
4181000,0.0324,0.013523,0.002678,0.000431,0.003526
4182000,0.0324,0.013523,0.002678,0.000431,0.002821
4183000,0.0324,0.013523,0.002678,0.000431,0.003056
4184000,0.0324,0.013523,0.002678,0.000431,0.002821
4185000,0.0324,0.013523,0.002678,0.000431,0.003291
4186000,0.0324,0.013523,0.002678,0.000431,0.002938
4187000,0.0324,0.013523,0.002678,0.000431,0.003408
4188000,0.0324,0.013523,0.002678,0.000431,0.002938
4189000,0.0324,0.013523,0.002678,0.000431,0.002703
4190000,0.0324,0.013523,0.002678,0.000431,0.002821
4191000,0.0324,0.013523,0.002678,0.000431,0.003173
4192000,0.0324,0.013523,0.002678,0.000431,0.002703
4193000,0.0324,0.013523,0.002678,0.000431,0.003056
4194000,0.0324,0.013523,0.002678,0.000431,0.003173
4195000,0.0324,0.013523,0.002678,0.000431,0.002821
4196000,0.0324,0.013523,0.002678,0.000431,0.002938
4197000,0.0324,0.013523,0.002678,0.000431,0.002938
4198000,0.0324,0.013523,0.002678,0.000431,0.003173
4199000,0.0324,0.013523,0.002678,0.000431,0.002586
4200000,0.0324,0.013523,0.002678,0.000431,0.003173
4201000,0.0324,0.013523,0.002678,0.000431,0.003526
4202000,0.0324,0.013523,0.002678,0.000431,0.002586
4203000,0.0324,0.013523,0.002678,0.000431,0.002938
4204000,0.0324,0.013523,0.002678,0.000431,0.002938
4205000,0.0324,0.013523,0.002678,0.000431,0.003173
4206000,0.0324,0.013523,0.002678,0.000431,0.002351
4207000,0.0324,0.013523,0.002678,0.000431,0.003291
4208000,0.0324,0.013523,0.002678,0.000431,0.003056
4209000,0.0324,0.013523,0.002678,0.000431,0.002938
4210000,0.0324,0.013523,0.002678,0.000431,0.003056
4211000,0.0324,0.013523,0.002678,0.000431,0.003173
4212000,0.0324,0.013523,0.002678,0.000431,0.002821
4213000,0.0324,0.013523,0.002678,0.000431,0.003173
4214000,0.0324,0.013523,0.002678,0.000431,0.003173
4215000,0.0324,0.013523,0.002678,0.000431,0.003056
4216000,0.0324,0.013523,0.002678,0.000431,0.003291
4217000,0.0324,0.013523,0.002678,0.000431,0.002938
4218000,0.0324,0.013523,0.002678,0.000431,0.003173
4219000,0.0324,0.013523,0.002678,0.000431,0.002938
4220000,0.0324,0.013523,0.002678,0.000431,0.003526
4221000,0.0324,0.013523,0.002678,0.000431,0.002468
4222000,0.0324,0.013523,0.002678,0.000431,0.002351
4223000,0.0324,0.013523,0.002678,0.000431,0.002233
4224000,0.0324,0.013523,0.002678,0.000431,0.002116
4225000,0.0324,0.013523,0.002678,0.000431,0.002233
4226000,0.0324,0.013523,0.002678,0.000431,0.002468
4227000,0.0324,0.013523,0.002678,0.000431,0.002468
4228000,0.0324,0.013523,0.002678,0.000431,0.001998
4229000,0.0324,0.013523,0.002678,0.000431,0.002351
4230000,0.0324,0.013523,0.002678,0.000431,0.002116
4231000,0.0324,0.013523,0.002678,0.000431,0.002468
4232000,0.0324,0.013523,0.002678,0.000431,0.002468
4233000,0.0324,0.013523,0.002678,0.000431,0.001998
4234000,0.0324,0.013523,0.002678,0.000431,0.002351
4235000,0.0324,0.013523,0.002678,0.000431,0.002586
4236000,0.0324,0.013523,0.002678,0.000431,0.002116
4237000,0.0324,0.013523,0.002678,0.000431,0.002233
4238000,0.0324,0.013523,0.002678,0.000431,0.002703
4239000,0.0324,0.013523,0.002678,0.000431,0.002351
4240000,0.0324,0.013523,0.002678,0.000431,0.002233
4241000,0.0324,0.013523,0.002678,0.000431,0.002351
4242000,0.0324,0.013523,0.002678,0.000431,0.002233
4243000,0.0324,0.013523,0.002678,0.000431,0.002586
4244000,0.0324,0.013523,0.002678,0.000431,0.001645
4245000,0.0324,0.013523,0.002678,0.000431,0.001528
4246000,0.0324,0.013523,0.002678,0.000431,0.001528
4247000,0.0324,0.013523,0.002678,0.000431,0.001293
4248000,0.0324,0.013523,0.002678,0.000431,0.001528
4249000,0.0324,0.013523,0.002678,0.000431,0.001528
4250000,0.0324,0.013523,0.002678,0.000431,0.001410
4251000,0.0324,0.013523,0.002678,0.000431,0.001880
4252000,0.0324,0.013523,0.002678,0.000431,0.001293
4253000,0.0324,0.013523,0.002678,0.000431,0.001293
4254000,0.0324,0.013523,0.002678,0.000431,0.001528
4255000,0.0324,0.013523,0.002678,0.000431,0.001528
4256000,0.0324,0.013523,0.002678,0.000431,0.001293
4257000,0.0324,0.013523,0.002678,0.000431,0.001645
4258000,0.0324,0.013523,0.002678,0.000431,0.001528
4259000,0.0324,0.013523,0.002678,0.000431,0.001410
4260000,0.0324,0.013523,0.002678,0.000431,0.001763
4261000,0.0324,0.013523,0.002678,0.000431,0.001645
4262000,0.0324,0.013523,0.002678,0.000431,0.001528
4263000,0.0324,0.013523,0.002678,0.000431,0.001645
4264000,0.0324,0.013523,0.002678,0.000431,0.001293
4265000,0.0324,0.013523,0.002678,0.000431,0.001645
4266000,0.0324,0.013523,0.002678,0.000431,0.001410
4267000,0.0324,0.013523,0.002678,0.000431,0.001763
4268000,0.0324,0.013523,0.002678,0.000431,0.001410
4269000,0.0324,0.013523,0.002678,0.000431,0.001293
4270000,0.0324,0.013523,0.002678,0.000431,0.001645
4271000,0.0324,0.013523,0.002678,0.000431,0.001410
4272000,0.0324,0.013523,0.002678,0.000431,0.001763
4273000,0.0324,0.013523,0.002678,0.000431,0.001528
4274000,0.0324,0.013523,0.002678,0.000431,0.001410
4275000,0.0324,0.013523,0.002678,0.000431,0.001645
4276000,0.0324,0.013523,0.002678,0.000431,0.001645
4277000,0.0324,0.013523,0.002678,0.000431,0.001645
4278000,0.0324,0.013523,0.002678,0.000431,0.001763
4279000,0.0324,0.013523,0.002678,0.000431,0.001175
4280000,0.0324,0.013523,0.002678,0.000431,0.001528
4281000,0.0324,0.013523,0.002678,0.000431,0.001645
4282000,0.0324,0.013523,0.002678,0.000431,0.001528
4283000,0.0324,0.013523,0.002678,0.000431,0.001528
4284000,0.0324,0.013523,0.002678,0.000431,0.001410
4285000,0.0324,0.013523,0.002678,0.000431,0.001645
4286000,0.0324,0.013523,0.002678,0.000431,0.001645
4287000,0.0324,0.013523,0.002678,0.000431,0.001410
4288000,0.0324,0.013523,0.002678,0.000431,0.001528
4289000,0.0324,0.013523,0.002678,0.000431,0.001528
4290000,0.0324,0.013523,0.002678,0.000431,0.001645
4291000,0.0324,0.013523,0.002678,0.000431,0.001528
4292000,0.0324,0.013523,0.002678,0.000431,0.001645
4293000,0.0324,0.013523,0.002678,0.000431,0.001410
4294000,0.0324,0.013523,0.002678,0.000431,0.001528
4295000,0.0324,0.013523,0.002678,0.000431,0.001645
4296000,0.0324,0.013523,0.002678,0.000431,0.001645
4297000,0.0324,0.013523,0.002678,0.000431,0.001645
4298000,0.0324,0.013523,0.002678,0.000431,0.001528
4299000,0.0324,0.013523,0.002678,0.000431,0.001410
4300000,0.0324,0.013523,0.002678,0.000431,0.001763
4301000,0.0324,0.013523,0.002678,0.000431,0.001645
4302000,0.0324,0.013523,0.002678,0.000431,0.001175
4303000,0.0324,0.013523,0.002678,0.000431,0.001528
4304000,0.0324,0.013523,0.002678,0.000431,0.001645
4305000,0.0324,0.013523,0.002678,0.000431,0.001293
4306000,0.0324,0.013523,0.002678,0.000431,0.001645
4307000,0.0324,0.013523,0.002678,0.000431,0.001645
4308000,0.0324,0.013523,0.002678,0.000431,0.001528
4309000,0.0324,0.013523,0.002678,0.000431,0.001645
4310000,0.0324,0.013523,0.002678,0.000431,0.001645
4311000,0.0324,0.013523,0.002678,0.000431,0.001293
4312000,0.0324,0.013523,0.002678,0.000431,0.001645
4313000,0.0324,0.013523,0.002678,0.000431,0.001763
4314000,0.0324,0.013523,0.002678,0.000431,0.001410
4315000,0.0324,0.013523,0.002678,0.000431,0.001763
4316000,0.0324,0.013523,0.002678,0.000431,0.001293
4317000,0.0324,0.013523,0.002678,0.000431,0.001410
4318000,0.0324,0.013523,0.002678,0.000431,0.001880
4319000,0.0324,0.013523,0.002678,0.000431,0.001528
4320000,0.0324,0.013523,0.002678,0.000431,0.001410
4321000,0.0324,0.013523,0.002678,0.000431,0.001645
4322000,0.0324,0.013523,0.002678,0.000431,0.001293
4323000,0.0324,0.013523,0.002678,0.000431,0.001410
4324000,0.0324,0.013523,0.002678,0.000431,0.001410
4325000,0.0324,0.013523,0.002678,0.000431,0.001528
4326000,0.0324,0.013523,0.002678,0.000431,0.001528
4327000,0.0324,0.013523,0.002678,0.000431,0.001410
4328000,0.0324,0.013523,0.002678,0.000431,0.001763
4329000,0.0324,0.013523,0.002678,0.000431,0.001410
4330000,0.0324,0.013523,0.002678,0.000431,0.001528
4331000,0.0324,0.013523,0.002678,0.000431,0.001528
4332000,0.0324,0.013523,0.002678,0.000431,0.001175
4333000,0.0324,0.013523,0.002678,0.000431,0.001645
4334000,0.0324,0.013523,0.002678,0.000431,0.001645
4335000,0.0324,0.013523,0.002678,0.000431,0.001410
4336000,0.0324,0.013523,0.002678,0.000431,0.001528
4337000,0.0324,0.013523,0.002678,0.000431,0.001763
4338000,0.0324,0.013523,0.002678,0.000431,0.001410
4339000,0.0324,0.013523,0.002678,0.000431,0.001175
4340000,0.0324,0.013523,0.002678,0.000431,0.001763
4341000,0.0324,0.013523,0.002678,0.000431,0.001528
4342000,0.0324,0.013523,0.002678,0.000431,0.001528
4343000,0.0324,0.013523,0.002678,0.000431,0.001763
4344000,0.0324,0.013523,0.002678,0.000431,0.001410
4345000,0.0324,0.013523,0.002678,0.000431,0.001645
4346000,0.0324,0.013523,0.002678,0.000431,0.001410
4347000,0.0324,0.013523,0.002678,0.000431,0.001645
4348000,0.0324,0.013523,0.002678,0.000431,0.001293
4349000,0.0324,0.013523,0.002678,0.000431,0.001763
4350000,0.0324,0.013523,0.002678,0.000431,0.001410
4351000,0.0324,0.013523,0.002678,0.000431,0.001645
4352000,0.0324,0.013523,0.002678,0.000431,0.001645
4353000,0.0324,0.013523,0.002678,0.000431,0.001293
4354000,0.0324,0.013523,0.002678,0.000431,0.001645
4355000,0.0324,0.013523,0.002678,0.000431,0.001293
4356000,0.0324,0.013523,0.002678,0.000431,0.001175
4357000,0.0324,0.013523,0.002678,0.000431,0.001528
4358000,0.0324,0.013523,0.002678,0.000431,0.001763
4359000,0.0324,0.013523,0.002678,0.000431,0.001410
4360000,0.0324,0.013523,0.002678,0.000431,0.001293
4361000,0.0324,0.013523,0.002678,0.000431,0.001763
4362000,0.0324,0.013523,0.002678,0.000431,0.002233
4363000,0.0324,0.013523,0.002678,0.000431,0.000705
4364000,0.0324,0.013523,0.002678,0.000431,0.000705
4365000,0.0324,0.013523,0.002678,0.000431,0.000823
4366000,0.0324,0.013523,0.002678,0.000431,0.000705
4367000,0.0324,0.013523,0.002678,0.000431,0.000823
4368000,0.0324,0.013523,0.002678,0.000431,0.000705
4369000,0.0324,0.013523,0.002678,0.000431,0.000705
4370000,0.0324,0.013523,0.002678,0.000431,0.000940
4371000,0.0324,0.013523,0.002678,0.000431,0.000705
4372000,0.0324,0.013523,0.002678,0.000431,0.000705
4373000,0.0324,0.013523,0.002678,0.000431,0.000823
4374000,0.0324,0.013523,0.002678,0.000431,0.000823
4375000,0.0324,0.013523,0.002678,0.000431,0.000705
4376000,0.0324,0.013523,0.002678,0.000431,0.000940
4377000,0.0324,0.013523,0.002678,0.000431,0.000588
4378000,0.0324,0.013523,0.002678,0.000431,0.000705
4379000,0.0324,0.013523,0.002678,0.000431,0.000940
4380000,0.0324,0.013523,0.002678,0.000431,0.000705
4381000,0.0324,0.013523,0.002678,0.000431,0.000823
4382000,0.0324,0.013523,0.002678,0.000431,0.000823
4383000,0.0324,0.013523,0.002678,0.000431,0.000705
4384000,0.0324,0.013523,0.002678,0.000431,0.000705
4385000,0.0324,0.013523,0.002678,0.000431,0.000940
4386000,0.0324,0.013523,0.002678,0.000431,0.000705
4387000,0.0324,0.013523,0.002678,0.000431,0.000823
4388000,0.0324,0.013523,0.002678,0.000431,0.000823
4389000,0.0324,0.013523,0.002678,0.000431,0.000823
4390000,0.0324,0.013523,0.002678,0.000431,0.000705
4391000,0.0324,0.013523,0.002678,0.000431,0.000940
4392000,0.0324,0.013523,0.002678,0.000431,0.000470
4393000,0.0324,0.013523,0.002678,0.000431,0.000705
4394000,0.0324,0.013523,0.002678,0.000431,0.000940
4395000,0.0324,0.013523,0.002678,0.000431,0.000705
4396000,0.0324,0.013523,0.002678,0.000431,0.000823
4397000,0.0324,0.013523,0.002678,0.000431,0.000823
4398000,0.0324,0.013523,0.002678,0.000431,0.000705
4399000,0.0324,0.013523,0.002678,0.000431,0.000823
4400000,0.0324,0.013523,0.002678,0.000431,0.000705
4401000,0.0324,0.013523,0.002678,0.000431,0.000588
4402000,0.0324,0.013523,0.002678,0.000431,0.000705
4403000,0.0324,0.013523,0.002678,0.000431,0.000940
4404000,0.0324,0.013523,0.002678,0.000431,0.000705
4405000,0.0324,0.013523,0.002678,0.000431,0.000940
4406000,0.0324,0.013523,0.002678,0.000431,0.000705
4407000,0.0324,0.013523,0.002678,0.000431,0.000705
4408000,0.0324,0.013523,0.002678,0.000431,0.000705
4409000,0.0324,0.013523,0.002678,0.000431,0.000705
4410000,0.0324,0.013523,0.002678,0.000431,0.000705
4411000,0.0324,0.013523,0.002678,0.000431,0.000823
4412000,0.0324,0.013523,0.002678,0.000431,0.000823
4413000,0.0324,0.013523,0.002678,0.000431,0.000705
4414000,0.0324,0.013523,0.002678,0.000431,0.000823
4415000,0.0324,0.013523,0.002678,0.000431,0.000823
4416000,0.0324,0.013523,0.002678,0.000431,0.000705
4417000,0.0324,0.013523,0.002678,0.000431,0.000823
4418000,0.0324,0.013523,0.002678,0.000431,0.000823
4419000,0.0324,0.013523,0.002678,0.000431,0.000705
4420000,0.0324,0.013523,0.002678,0.000431,0.000588
4421000,0.0324,0.013523,0.002678,0.000431,0.000823
4422000,0.0324,0.013523,0.002678,0.000431,0.000705
4423000,0.0324,0.013523,0.002678,0.000431,0.000705
4424000,0.0324,0.013523,0.002678,0.000431,0.000940
4425000,0.0324,0.013523,0.002678,0.000431,0.000705
4426000,0.0324,0.013523,0.002678,0.000431,0.000705
4427000,0.0324,0.013523,0.002678,0.000431,0.000823
4428000,0.0324,0.013523,0.002678,0.000431,0.000705
4429000,0.0324,0.013523,0.002678,0.000431,0.000705
4430000,0.0324,0.013523,0.002678,0.000431,0.000823
4431000,0.0324,0.013523,0.002678,0.000431,0.000705
4432000,0.0324,0.013523,0.002678,0.000431,0.000940
4433000,0.0324,0.013523,0.002678,0.000431,0.000823
4434000,0.0324,0.013523,0.002678,0.000431,0.000823
4435000,0.0324,0.013523,0.002678,0.000431,0.000705
4436000,0.0324,0.013523,0.002678,0.000431,0.000940
4437000,0.0324,0.013523,0.002678,0.000431,0.000705
4438000,0.0324,0.013523,0.002678,0.000431,0.000705
4439000,0.0324,0.013523,0.002678,0.000431,0.000940
4440000,0.0324,0.013523,0.002678,0.000431,0.000705
4441000,0.0324,0.013523,0.002678,0.000431,0.000705
4442000,0.0324,0.013523,0.002678,0.000431,0.000940
4443000,0.0324,0.013523,0.002678,0.000431,0.000705
4444000,0.0324,0.013523,0.002678,0.000431,0.000705
4445000,0.0324,0.013523,0.002678,0.000431,0.000940
4446000,0.0324,0.013523,0.002678,0.000431,0.000823
4447000,0.0324,0.013523,0.002678,0.000431,0.000588
4448000,0.0324,0.013523,0.002678,0.000431,0.000940
4449000,0.0324,0.013523,0.002678,0.000431,0.000705
4450000,0.0324,0.013523,0.002678,0.000431,0.000705
4451000,0.0324,0.013523,0.002678,0.000431,0.000705
4452000,0.0324,0.013523,0.002678,0.000431,0.000705
4453000,0.0324,0.013523,0.002678,0.000431,0.000705
4454000,0.0324,0.013523,0.002678,0.000431,0.000940
4455000,0.0324,0.013523,0.002678,0.000431,0.000588
4456000,0.0324,0.013523,0.002678,0.000431,0.000588
4457000,0.0324,0.013523,0.002678,0.000431,0.000940
4458000,0.0324,0.013523,0.002678,0.000431,0.000823
4459000,0.0324,0.013523,0.002678,0.000431,0.000705
4460000,0.0324,0.013523,0.002678,0.000431,0.000940
4461000,0.0324,0.013523,0.002678,0.000431,0.000823
4462000,0.0324,0.013523,0.002678,0.000431,0.000823
4463000,0.0324,0.013523,0.002678,0.000431,0.000823
4464000,0.0324,0.013523,0.002678,0.000431,0.000705
4465000,0.0324,0.013523,0.002678,0.000431,0.000823
4466000,0.0324,0.013523,0.002678,0.000431,0.000823
4467000,0.0324,0.013523,0.002678,0.000431,0.000705
4468000,0.0324,0.013523,0.002678,0.000431,0.000940
4469000,0.0324,0.013523,0.002678,0.000431,0.000705
4470000,0.0324,0.013523,0.002678,0.000431,0.000705
4471000,0.0324,0.013523,0.002678,0.000431,0.000823
4472000,0.0324,0.013523,0.002678,0.000431,0.000705
4473000,0.0324,0.013523,0.002678,0.000431,0.000705
4474000,0.0324,0.013523,0.002678,0.000431,0.000588
4475000,0.0324,0.013523,0.002678,0.000431,0.001058
4476000,0.0324,0.013523,0.002678,0.000431,0.000823
4477000,0.0324,0.013523,0.002678,0.000431,0.000588
4478000,0.0324,0.013523,0.002678,0.000431,0.000940
4479000,0.0324,0.013523,0.002678,0.000431,0.000823
4480000,0.0324,0.013523,0.002678,0.000431,0.000823
4481000,0.0324,0.013523,0.002678,0.000431,0.000823
4482000,0.0324,0.013523,0.002678,0.000431,0.000470
4483000,0.0324,0.013523,0.002678,0.000431,0.000705
4484000,0.0324,0.013523,0.002678,0.000431,0.000705
4485000,0.0324,0.013523,0.002678,0.000431,0.000823
4486000,0.0324,0.013523,0.002678,0.000431,0.000823
4487000,0.0324,0.013523,0.002678,0.000431,0.000940
4488000,0.0324,0.013523,0.002678,0.000431,0.000705
4489000,0.0324,0.013523,0.002678,0.000431,0.000588
4490000,0.0324,0.013523,0.002678,0.000431,0.000823
4491000,0.0324,0.013523,0.002678,0.000431,0.000705
4492000,0.0324,0.013523,0.002678,0.000431,0.000705
4493000,0.0324,0.013523,0.002678,0.000431,0.000940
4494000,0.0324,0.013523,0.002678,0.000431,0.000705
4495000,0.0324,0.013523,0.002678,0.000431,0.000705
4496000,0.0324,0.013523,0.002678,0.000431,0.000823
4497000,0.0324,0.013523,0.002678,0.000431,0.000823
4498000,0.0324,0.013523,0.002678,0.000431,0.000705
4499000,0.0324,0.013523,0.002678,0.000431,0.000940
4500000,0.0324,0.013523,0.002678,0.000431,0.000823
4501000,0.0324,0.013523,0.002678,0.000431,0.000705
4502000,0.0324,0.013523,0.002678,0.000431,0.000823
4503000,0.0324,0.013523,0.002678,0.000431,0.000705
4504000,0.0324,0.013523,0.002678,0.000431,0.000705
4505000,0.0324,0.013523,0.002678,0.000431,0.000940
4506000,0.0324,0.013523,0.002678,0.000431,0.000705
4507000,0.0324,0.013523,0.002678,0.000431,0.000823
4508000,0.0324,0.013523,0.002678,0.000431,0.000823
4509000,0.0324,0.013523,0.002678,0.000431,0.000823
4510000,0.0324,0.013523,0.002678,0.000431,0.000705
4511000,0.0324,0.013523,0.002678,0.000431,0.000940
4512000,0.0324,0.013523,0.002678,0.000431,0.000823
4513000,0.0324,0.013523,0.002678,0.000431,0.000823
4514000,0.0324,0.013523,0.002678,0.000431,0.000823
4515000,0.0324,0.013523,0.002678,0.000431,0.000705
4516000,0.0324,0.013523,0.002678,0.000431,0.000823
4517000,0.0324,0.013523,0.002678,0.000431,0.000823
4518000,0.0324,0.013523,0.002678,0.000431,0.000705
4519000,0.0324,0.013523,0.002678,0.000431,0.000823
4520000,0.0324,0.013523,0.002678,0.000431,0.000705
4521000,0.0324,0.013523,0.002678,0.000431,0.000823
4522000,0.0324,0.013523,0.002678,0.000431,0.000588
4523000,0.0324,0.013523,0.002678,0.000431,0.000940
4524000,0.0324,0.013523,0.002678,0.000431,0.000705
4525000,0.0324,0.013523,0.002678,0.000431,0.000940
4526000,0.0324,0.013523,0.002678,0.000431,0.000705
4527000,0.0324,0.013523,0.002678,0.000431,0.000823
4528000,0.0324,0.013523,0.002678,0.000431,0.000940
4529000,0.0324,0.013523,0.002678,0.000431,0.000705
4530000,0.0324,0.013523,0.002678,0.000431,0.000470
4531000,0.0324,0.013523,0.002678,0.000431,0.000940
4532000,0.0324,0.013523,0.002678,0.000431,0.000705
4533000,0.0324,0.013523,0.002678,0.000431,0.000705
4534000,0.0324,0.013523,0.002678,0.000431,0.000823
4535000,0.0324,0.013523,0.002678,0.000431,0.000588
4536000,0.0324,0.013523,0.002678,0.000431,0.000823
4537000,0.0324,0.013523,0.002678,0.000431,0.000823
4538000,0.0324,0.013523,0.002678,0.000431,0.000705
4539000,0.0324,0.013523,0.002678,0.000431,0.000705
4540000,0.0324,0.013523,0.002678,0.000431,0.000705
4541000,0.0324,0.013523,0.002678,0.000431,0.000705
4542000,0.0324,0.013523,0.002678,0.000431,0.000705
4543000,0.0324,0.013523,0.002678,0.000431,0.000823
4544000,0.0324,0.013523,0.002678,0.000431,0.000705
4545000,0.0324,0.013523,0.002678,0.000431,0.000705
4546000,0.0324,0.013523,0.002678,0.000431,0.000940
4547000,0.0324,0.013523,0.002678,0.000431,0.000705
4548000,0.0324,0.013523,0.002678,0.000431,0.000705
4549000,0.0324,0.013523,0.002678,0.000431,0.000823
4550000,0.0324,0.013523,0.002678,0.000431,0.000823
4551000,0.0324,0.013523,0.002678,0.000431,0.000705
4552000,0.0324,0.013523,0.002678,0.000431,0.000940
4553000,0.0324,0.013523,0.002678,0.000431,0.000823
4554000,0.0324,0.013523,0.002678,0.000431,0.000470
4555000,0.0324,0.013523,0.002678,0.000431,0.000940
4556000,0.0324,0.013523,0.002678,0.000431,0.000705
4557000,0.0324,0.013523,0.002678,0.000431,0.000705
4558000,0.0324,0.013523,0.002678,0.000431,0.000940
4559000,0.0324,0.013523,0.002678,0.000431,0.000705
4560000,0.0324,0.013523,0.002678,0.000431,0.000705
4561000,0.0324,0.013523,0.002678,0.000431,0.000823
4562000,0.0324,0.013523,0.002678,0.000431,0.000588
4563000,0.0324,0.013523,0.002678,0.000431,0.000705
4564000,0.0324,0.013523,0.002678,0.000431,0.000940
4565000,0.0324,0.013523,0.002678,0.000431,0.000705
4566000,0.0324,0.013523,0.002678,0.000431,0.000705
4567000,0.0324,0.013523,0.002678,0.000431,0.000940
4568000,0.0324,0.013523,0.002678,0.000431,0.000705
4569000,0.0324,0.013523,0.002678,0.000431,0.000705
4570000,0.0324,0.013523,0.002678,0.000431,0.001058
4571000,0.0324,0.013523,0.002678,0.000431,0.000705
4572000,0.0324,0.013523,0.002678,0.000431,0.000823
4573000,0.0324,0.013523,0.002678,0.000431,0.000705
4574000,0.0324,0.013523,0.002678,0.000431,0.000588
4575000,0.0324,0.013523,0.002678,0.000431,0.000588
4576000,0.0324,0.013523,0.002678,0.000431,0.001058
4577000,0.0324,0.013523,0.002678,0.000431,0.000823
4578000,0.0324,0.013523,0.002678,0.000431,0.000823
4579000,0.0324,0.013523,0.002678,0.000431,0.000705
4580000,0.0324,0.013523,0.002678,0.000431,0.000823
4581000,0.0324,0.013523,0.002678,0.000431,0.000823
4582000,0.0324,0.013523,0.002678,0.000431,0.000823
4583000,0.0324,0.013523,0.002678,0.000431,0.000705
4584000,0.0324,0.013523,0.002678,0.000431,0.000823
4585000,0.0324,0.013523,0.002678,0.000431,0.000705
4586000,0.0324,0.013523,0.002678,0.000431,0.000823
4587000,0.0324,0.013523,0.002678,0.000431,0.000823
4588000,0.0324,0.013523,0.002678,0.000431,0.000823
4589000,0.0324,0.013523,0.002678,0.000431,0.000705
4590000,0.0324,0.013523,0.002678,0.000431,0.000940
4591000,0.0324,0.013523,0.002678,0.000431,0.000705
4592000,0.0324,0.013523,0.002678,0.000431,0.000705
4593000,0.0324,0.013523,0.002678,0.000431,0.000705
4594000,0.0324,0.013523,0.002678,0.000431,0.000705
4595000,0.0324,0.013523,0.002678,0.000431,0.000705
4596000,0.0324,0.013523,0.002678,0.000431,0.000940
4597000,0.0324,0.013523,0.002678,0.000431,0.000705
4598000,0.0324,0.013523,0.002678,0.000431,0.000940
4599000,0.0324,0.013523,0.002678,0.000431,0.000823
4600000,0.0324,0.013523,0.002678,0.000431,0.000823
4601000,0.0324,0.013523,0.002678,0.000431,0.000705
4602000,0.0324,0.013523,0.002678,0.000431,0.000940
4603000,0.0324,0.013523,0.002678,0.000431,0.000588
4604000,0.0324,0.013523,0.002678,0.000431,0.000588
4605000,0.0324,0.013523,0.002678,0.000431,0.000940
4606000,0.0324,0.013523,0.002678,0.000431,0.000705
4607000,0.0324,0.013523,0.002678,0.000431,0.000705
4608000,0.0324,0.013523,0.002678,0.000431,0.000940
