Cycle,Area(mm^2),PeakDynamic(W),SubthresholdLeakage(W),GateLeakage(W),RunTimeDynamic(W)
14000000,0.0324,0.013523,0.002678,0.000431,0.004349
14001000,0.0324,0.013523,0.002678,0.000431,0.004113
14002000,0.0324,0.013523,0.002678,0.000431,0.004113
14003000,0.0324,0.013523,0.002678,0.000431,0.004349
14004000,0.0324,0.013523,0.002678,0.000431,0.004584
14005000,0.0324,0.013523,0.002678,0.000431,0.003878
14006000,0.0324,0.013523,0.002678,0.000431,0.003996
14007000,0.0324,0.013523,0.002678,0.000431,0.003996
14008000,0.0324,0.013523,0.002678,0.000431,0.004584
14009000,0.0324,0.013523,0.002678,0.000431,0.003996
14010000,0.0324,0.013523,0.002678,0.000431,0.004584
14011000,0.0324,0.013523,0.002678,0.000431,0.003996
14012000,0.0324,0.013523,0.002678,0.000431,0.004349
14013000,0.0324,0.013523,0.002678,0.000431,0.003996
14014000,0.0324,0.013523,0.002678,0.000431,0.004584
14015000,0.0324,0.013523,0.002678,0.000431,0.004701
14016000,0.0324,0.013523,0.002678,0.000431,0.003878
14017000,0.0324,0.013523,0.002678,0.000431,0.004113
14018000,0.0324,0.013523,0.002678,0.000431,0.004584
14019000,0.0324,0.013523,0.002678,0.000431,0.004584
14020000,0.0324,0.013523,0.002678,0.000431,0.003996
14021000,0.0324,0.013523,0.002678,0.000431,0.004584
14022000,0.0324,0.013523,0.002678,0.000431,0.003996
14023000,0.0324,0.013523,0.002678,0.000431,0.004113
14024000,0.0324,0.013523,0.002678,0.000431,0.003996
14025000,0.0324,0.013523,0.002678,0.000431,0.004349
14026000,0.0324,0.013523,0.002678,0.000431,0.003761
14027000,0.0324,0.013523,0.002678,0.000431,0.004349
14028000,0.0324,0.013523,0.002678,0.000431,0.004701
14029000,0.0324,0.013523,0.002678,0.000431,0.004584
14030000,0.0324,0.013523,0.002678,0.000431,0.004349
14031000,0.0324,0.013523,0.002678,0.000431,0.004349
14032000,0.0324,0.013523,0.002678,0.000431,0.003996
14033000,0.0324,0.013523,0.002678,0.000431,0.004349
14034000,0.0324,0.013523,0.002678,0.000431,0.003761
14035000,0.0324,0.013523,0.002678,0.000431,0.005054
14036000,0.0324,0.013523,0.002678,0.000431,0.003996
14037000,0.0324,0.013523,0.002678,0.000431,0.004231
14038000,0.0324,0.013523,0.002678,0.000431,0.003996
14039000,0.0324,0.013523,0.002678,0.000431,0.004819
14040000,0.0324,0.013523,0.002678,0.000431,0.004113
14041000,0.0324,0.013523,0.002678,0.000431,0.004231
14042000,0.0324,0.013523,0.002678,0.000431,0.004349
14043000,0.0324,0.013523,0.002678,0.000431,0.004231
14044000,0.0324,0.013523,0.002678,0.000431,0.003878
14045000,0.0324,0.013523,0.002678,0.000431,0.004584
14046000,0.0324,0.013523,0.002678,0.000431,0.004466
14047000,0.0324,0.013523,0.002678,0.000431,0.003878
14048000,0.0324,0.013523,0.002678,0.000431,0.004349
14049000,0.0324,0.013523,0.002678,0.000431,0.004349
14050000,0.0324,0.013523,0.002678,0.000431,0.003996
14051000,0.0324,0.013523,0.002678,0.000431,0.004349
14052000,0.0324,0.013523,0.002678,0.000431,0.004349
14053000,0.0324,0.013523,0.002678,0.000431,0.004466
14054000,0.0324,0.013523,0.002678,0.000431,0.003526
14055000,0.0324,0.013523,0.002678,0.000431,0.004113
14056000,0.0324,0.013523,0.002678,0.000431,0.004113
14057000,0.0324,0.013523,0.002678,0.000431,0.004819
14058000,0.0324,0.013523,0.002678,0.000431,0.003996
14059000,0.0324,0.013523,0.002678,0.000431,0.004349
14060000,0.0324,0.013523,0.002678,0.000431,0.004231
14061000,0.0324,0.013523,0.002678,0.000431,0.003878
14062000,0.0324,0.013523,0.002678,0.000431,0.004584
14063000,0.0324,0.013523,0.002678,0.000431,0.004113
14064000,0.0324,0.013523,0.002678,0.000431,0.004466
14065000,0.0324,0.013523,0.002678,0.000431,0.003878
14066000,0.0324,0.013523,0.002678,0.000431,0.004584
14067000,0.0324,0.013523,0.002678,0.000431,0.004466
14068000,0.0324,0.013523,0.002678,0.000431,0.003996
14069000,0.0324,0.013523,0.002678,0.000431,0.004466
14070000,0.0324,0.013523,0.002678,0.000431,0.004701
14071000,0.0324,0.013523,0.002678,0.000431,0.003761
14072000,0.0324,0.013523,0.002678,0.000431,0.004349
14073000,0.0324,0.013523,0.002678,0.000431,0.004231
14074000,0.0324,0.013523,0.002678,0.000431,0.004349
14075000,0.0324,0.013523,0.002678,0.000431,0.004349
14076000,0.0324,0.013523,0.002678,0.000431,0.004231
14077000,0.0324,0.013523,0.002678,0.000431,0.004231
14078000,0.0324,0.013523,0.002678,0.000431,0.004113
14079000,0.0324,0.013523,0.002678,0.000431,0.004231
14080000,0.0324,0.013523,0.002678,0.000431,0.004466
14081000,0.0324,0.013523,0.002678,0.000431,0.004113
14082000,0.0324,0.013523,0.002678,0.000431,0.004231
14083000,0.0324,0.013523,0.002678,0.000431,0.004231
14084000,0.0324,0.013523,0.002678,0.000431,0.004113
14085000,0.0324,0.013523,0.002678,0.000431,0.004231
14086000,0.0324,0.013523,0.002678,0.000431,0.004349
14087000,0.0324,0.013523,0.002678,0.000431,0.004113
14088000,0.0324,0.013523,0.002678,0.000431,0.004349
14089000,0.0324,0.013523,0.002678,0.000431,0.003761
14090000,0.0324,0.013523,0.002678,0.000431,0.004936
14091000,0.0324,0.013523,0.002678,0.000431,0.003996
14092000,0.0324,0.013523,0.002678,0.000431,0.004584
14093000,0.0324,0.013523,0.002678,0.000431,0.003761
14094000,0.0324,0.013523,0.002678,0.000431,0.004349
14095000,0.0324,0.013523,0.002678,0.000431,0.003996
14096000,0.0324,0.013523,0.002678,0.000431,0.003878
14097000,0.0324,0.013523,0.002678,0.000431,0.004819
14098000,0.0324,0.013523,0.002678,0.000431,0.003996
14099000,0.0324,0.013523,0.002678,0.000431,0.004466
14100000,0.0324,0.013523,0.002678,0.000431,0.004113
14101000,0.0324,0.013523,0.002678,0.000431,0.003996
14102000,0.0324,0.013523,0.002678,0.000431,0.004349
14103000,0.0324,0.013523,0.002678,0.000431,0.004231
14104000,0.0324,0.013523,0.002678,0.000431,0.004113
14105000,0.0324,0.013523,0.002678,0.000431,0.004349
14106000,0.0324,0.013523,0.002678,0.000431,0.004231
14107000,0.0324,0.013523,0.002678,0.000431,0.004113
14108000,0.0324,0.013523,0.002678,0.000431,0.003878
14109000,0.0324,0.013523,0.002678,0.000431,0.004349
14110000,0.0324,0.013523,0.002678,0.000431,0.004349
14111000,0.0324,0.013523,0.002678,0.000431,0.004113
14112000,0.0324,0.013523,0.002678,0.000431,0.004349
14113000,0.0324,0.013523,0.002678,0.000431,0.004349
14114000,0.0324,0.013523,0.002678,0.000431,0.003761
14115000,0.0324,0.013523,0.002678,0.000431,0.004349
14116000,0.0324,0.013523,0.002678,0.000431,0.003996
14117000,0.0324,0.013523,0.002678,0.000431,0.004466
14118000,0.0324,0.013523,0.002678,0.000431,0.004113
14119000,0.0324,0.013523,0.002678,0.000431,0.004466
14120000,0.0324,0.013523,0.002678,0.000431,0.004584
14121000,0.0324,0.013523,0.002678,0.000431,0.003761
14122000,0.0324,0.013523,0.002678,0.000431,0.004349
14123000,0.0324,0.013523,0.002678,0.000431,0.004466
14124000,0.0324,0.013523,0.002678,0.000431,0.004231
14125000,0.0324,0.013523,0.002678,0.000431,0.003761
14126000,0.0324,0.013523,0.002678,0.000431,0.004349
14127000,0.0324,0.013523,0.002678,0.000431,0.003878
14128000,0.0324,0.013523,0.002678,0.000431,0.004466
14129000,0.0324,0.013523,0.002678,0.000431,0.004349
14130000,0.0324,0.013523,0.002678,0.000431,0.004349
14131000,0.0324,0.013523,0.002678,0.000431,0.004349
14132000,0.0324,0.013523,0.002678,0.000431,0.003996
14133000,0.0324,0.013523,0.002678,0.000431,0.004819
14134000,0.0324,0.013523,0.002678,0.000431,0.003996
14135000,0.0324,0.013523,0.002678,0.000431,0.004466
14136000,0.0324,0.013523,0.002678,0.000431,0.003996
14137000,0.0324,0.013523,0.002678,0.000431,0.004701
14138000,0.0324,0.013523,0.002678,0.000431,0.003996
14139000,0.0324,0.013523,0.002678,0.000431,0.004466
14140000,0.0324,0.013523,0.002678,0.000431,0.003996
14141000,0.0324,0.013523,0.002678,0.000431,0.004349
14142000,0.0324,0.013523,0.002678,0.000431,0.003878
14143000,0.0324,0.013523,0.002678,0.000431,0.004466
14144000,0.0324,0.013523,0.002678,0.000431,0.004584
14145000,0.0324,0.013523,0.002678,0.000431,0.003878
14146000,0.0324,0.013523,0.002678,0.000431,0.004349
14147000,0.0324,0.013523,0.002678,0.000431,0.004231
14148000,0.0324,0.013523,0.002678,0.000431,0.004231
14149000,0.0324,0.013523,0.002678,0.000431,0.004113
14150000,0.0324,0.013523,0.002678,0.000431,0.004113
14151000,0.0324,0.013523,0.002678,0.000431,0.004584
14152000,0.0324,0.013523,0.002678,0.000431,0.003996
14153000,0.0324,0.013523,0.002678,0.000431,0.004466
14154000,0.0324,0.013523,0.002678,0.000431,0.004349
14155000,0.0324,0.013523,0.002678,0.000431,0.004584
14156000,0.0324,0.013523,0.002678,0.000431,0.003878
14157000,0.0324,0.013523,0.002678,0.000431,0.004936
14158000,0.0324,0.013523,0.002678,0.000431,0.003996
14159000,0.0324,0.013523,0.002678,0.000431,0.004231
14160000,0.0324,0.013523,0.002678,0.000431,0.004113
14161000,0.0324,0.013523,0.002678,0.000431,0.004466
14162000,0.0324,0.013523,0.002678,0.000431,0.004231
14163000,0.0324,0.013523,0.002678,0.000431,0.004231
14164000,0.0324,0.013523,0.002678,0.000431,0.004113
14165000,0.0324,0.013523,0.002678,0.000431,0.003996
14166000,0.0324,0.013523,0.002678,0.000431,0.004349
14167000,0.0324,0.013523,0.002678,0.000431,0.004231
14168000,0.0324,0.013523,0.002678,0.000431,0.004701
14169000,0.0324,0.013523,0.002678,0.000431,0.004231
14170000,0.0324,0.013523,0.002678,0.000431,0.004349
14171000,0.0324,0.013523,0.002678,0.000431,0.004584
14172000,0.0324,0.013523,0.002678,0.000431,0.004113
14173000,0.0324,0.013523,0.002678,0.000431,0.003761
14174000,0.0324,0.013523,0.002678,0.000431,0.004584
14175000,0.0324,0.013523,0.002678,0.000431,0.004584
14176000,0.0324,0.013523,0.002678,0.000431,0.003878
14177000,0.0324,0.013523,0.002678,0.000431,0.004113
14178000,0.0324,0.013523,0.002678,0.000431,0.004349
14179000,0.0324,0.013523,0.002678,0.000431,0.004231
14180000,0.0324,0.013523,0.002678,0.000431,0.003996
14181000,0.0324,0.013523,0.002678,0.000431,0.004231
14182000,0.0324,0.013523,0.002678,0.000431,0.004466
14183000,0.0324,0.013523,0.002678,0.000431,0.004113
14184000,0.0324,0.013523,0.002678,0.000431,0.004113
14185000,0.0324,0.013523,0.002678,0.000431,0.004349
14186000,0.0324,0.013523,0.002678,0.000431,0.004584
14187000,0.0324,0.013523,0.002678,0.000431,0.003996
14188000,0.0324,0.013523,0.002678,0.000431,0.004584
14189000,0.0324,0.013523,0.002678,0.000431,0.004231
14190000,0.0324,0.013523,0.002678,0.000431,0.004349
14191000,0.0324,0.013523,0.002678,0.000431,0.004113
14192000,0.0324,0.013523,0.002678,0.000431,0.004349
14193000,0.0324,0.013523,0.002678,0.000431,0.004113
14194000,0.0324,0.013523,0.002678,0.000431,0.003761
14195000,0.0324,0.013523,0.002678,0.000431,0.004819
14196000,0.0324,0.013523,0.002678,0.000431,0.004231
14197000,0.0324,0.013523,0.002678,0.000431,0.004349
14198000,0.0324,0.013523,0.002678,0.000431,0.004584
14199000,0.0324,0.013523,0.002678,0.000431,0.004231
14200000,0.0324,0.013523,0.002678,0.000431,0.004231
14201000,0.0324,0.013523,0.002678,0.000431,0.004466
14202000,0.0324,0.013523,0.002678,0.000431,0.004466
14203000,0.0324,0.013523,0.002678,0.000431,0.004349
14204000,0.0324,0.013523,0.002678,0.000431,0.004584
14205000,0.0324,0.013523,0.002678,0.000431,0.004113
14206000,0.0324,0.013523,0.002678,0.000431,0.004349
14207000,0.0324,0.013523,0.002678,0.000431,0.003996
14208000,0.0324,0.013523,0.002678,0.000431,0.004231
14209000,0.0324,0.013523,0.002678,0.000431,0.004113
14210000,0.0324,0.013523,0.002678,0.000431,0.004231
14211000,0.0324,0.013523,0.002678,0.000431,0.004349
14212000,0.0324,0.013523,0.002678,0.000431,0.003996
14213000,0.0324,0.013523,0.002678,0.000431,0.004701
14214000,0.0324,0.013523,0.002678,0.000431,0.003996
14215000,0.0324,0.013523,0.002678,0.000431,0.004231
14216000,0.0324,0.013523,0.002678,0.000431,0.004113
14217000,0.0324,0.013523,0.002678,0.000431,0.004349
14218000,0.0324,0.013523,0.002678,0.000431,0.004349
14219000,0.0324,0.013523,0.002678,0.000431,0.004231
14220000,0.0324,0.013523,0.002678,0.000431,0.004231
14221000,0.0324,0.013523,0.002678,0.000431,0.004113
14222000,0.0324,0.013523,0.002678,0.000431,0.004113
14223000,0.0324,0.013523,0.002678,0.000431,0.004584
14224000,0.0324,0.013523,0.002678,0.000431,0.003761
14225000,0.0324,0.013523,0.002678,0.000431,0.004584
14226000,0.0324,0.013523,0.002678,0.000431,0.003996
14227000,0.0324,0.013523,0.002678,0.000431,0.004701
14228000,0.0324,0.013523,0.002678,0.000431,0.003996
14229000,0.0324,0.013523,0.002678,0.000431,0.004466
14230000,0.0324,0.013523,0.002678,0.000431,0.004231
14231000,0.0324,0.013523,0.002678,0.000431,0.004819
14232000,0.0324,0.013523,0.002678,0.000431,0.003996
14233000,0.0324,0.013523,0.002678,0.000431,0.004466
14234000,0.0324,0.013523,0.002678,0.000431,0.004231
14235000,0.0324,0.013523,0.002678,0.000431,0.004113
14236000,0.0324,0.013523,0.002678,0.000431,0.004231
14237000,0.0324,0.013523,0.002678,0.000431,0.004349
14238000,0.0324,0.013523,0.002678,0.000431,0.004349
14239000,0.0324,0.013523,0.002678,0.000431,0.004819
14240000,0.0324,0.013523,0.002678,0.000431,0.004113
14241000,0.0324,0.013523,0.002678,0.000431,0.004584
14242000,0.0324,0.013523,0.002678,0.000431,0.004349
14243000,0.0324,0.013523,0.002678,0.000431,0.003996
14244000,0.0324,0.013523,0.002678,0.000431,0.004466
14245000,0.0324,0.013523,0.002678,0.000431,0.004701
14246000,0.0324,0.013523,0.002678,0.000431,0.003996
14247000,0.0324,0.013523,0.002678,0.000431,0.003878
14248000,0.0324,0.013523,0.002678,0.000431,0.003996
14249000,0.0324,0.013523,0.002678,0.000431,0.004113
14250000,0.0324,0.013523,0.002678,0.000431,0.004466
14251000,0.0324,0.013523,0.002678,0.000431,0.004113
14252000,0.0324,0.013523,0.002678,0.000431,0.004349
14253000,0.0324,0.013523,0.002678,0.000431,0.004113
14254000,0.0324,0.013523,0.002678,0.000431,0.004349
14255000,0.0324,0.013523,0.002678,0.000431,0.004349
14256000,0.0324,0.013523,0.002678,0.000431,0.003878
14257000,0.0324,0.013523,0.002678,0.000431,0.003996
14258000,0.0324,0.013523,0.002678,0.000431,0.004701
14259000,0.0324,0.013523,0.002678,0.000431,0.004113
14260000,0.0324,0.013523,0.002678,0.000431,0.004584
14261000,0.0324,0.013523,0.002678,0.000431,0.004231
14262000,0.0324,0.013523,0.002678,0.000431,0.004466
14263000,0.0324,0.013523,0.002678,0.000431,0.003996
14264000,0.0324,0.013523,0.002678,0.000431,0.004701
14265000,0.0324,0.013523,0.002678,0.000431,0.003643
14266000,0.0324,0.013523,0.002678,0.000431,0.004466
14267000,0.0324,0.013523,0.002678,0.000431,0.003761
14268000,0.0324,0.013523,0.002678,0.000431,0.004584
14269000,0.0324,0.013523,0.002678,0.000431,0.004349
14270000,0.0324,0.013523,0.002678,0.000431,0.004113
14271000,0.0324,0.013523,0.002678,0.000431,0.004349
14272000,0.0324,0.013523,0.002678,0.000431,0.004349
14273000,0.0324,0.013523,0.002678,0.000431,0.003643
14274000,0.0324,0.013523,0.002678,0.000431,0.004466
14275000,0.0324,0.013523,0.002678,0.000431,0.004231
14276000,0.0324,0.013523,0.002678,0.000431,0.003996
14277000,0.0324,0.013523,0.002678,0.000431,0.004231
14278000,0.0324,0.013523,0.002678,0.000431,0.004584
14279000,0.0324,0.013523,0.002678,0.000431,0.003878
14280000,0.0324,0.013523,0.002678,0.000431,0.004231
14281000,0.0324,0.013523,0.002678,0.000431,0.004466
14282000,0.0324,0.013523,0.002678,0.000431,0.004113
14283000,0.0324,0.013523,0.002678,0.000431,0.004231
14284000,0.0324,0.013523,0.002678,0.000431,0.004584
14285000,0.0324,0.013523,0.002678,0.000431,0.004466
14286000,0.0324,0.013523,0.002678,0.000431,0.004113
14287000,0.0324,0.013523,0.002678,0.000431,0.004113
14288000,0.0324,0.013523,0.002678,0.000431,0.003996
14289000,0.0324,0.013523,0.002678,0.000431,0.004466
14290000,0.0324,0.013523,0.002678,0.000431,0.003878
14291000,0.0324,0.013523,0.002678,0.000431,0.004113
14292000,0.0324,0.013523,0.002678,0.000431,0.004701
14293000,0.0324,0.013523,0.002678,0.000431,0.003996
14294000,0.0324,0.013523,0.002678,0.000431,0.004349
14295000,0.0324,0.013523,0.002678,0.000431,0.004466
14296000,0.0324,0.013523,0.002678,0.000431,0.004349
14297000,0.0324,0.013523,0.002678,0.000431,0.004113
14298000,0.0324,0.013523,0.002678,0.000431,0.004349
14299000,0.0324,0.013523,0.002678,0.000431,0.004231
14300000,0.0324,0.013523,0.002678,0.000431,0.004113
14301000,0.0324,0.013523,0.002678,0.000431,0.004113
14302000,0.0324,0.013523,0.002678,0.000431,0.004584
14303000,0.0324,0.013523,0.002678,0.000431,0.004231
14304000,0.0324,0.013523,0.002678,0.000431,0.003761
14305000,0.0324,0.013523,0.002678,0.000431,0.004936
14306000,0.0324,0.013523,0.002678,0.000431,0.003996
14307000,0.0324,0.013523,0.002678,0.000431,0.004231
14308000,0.0324,0.013523,0.002678,0.000431,0.004349
14309000,0.0324,0.013523,0.002678,0.000431,0.004701
14310000,0.0324,0.013523,0.002678,0.000431,0.003761
14311000,0.0324,0.013523,0.002678,0.000431,0.004349
14312000,0.0324,0.013523,0.002678,0.000431,0.004231
14313000,0.0324,0.013523,0.002678,0.000431,0.004349
14314000,0.0324,0.013523,0.002678,0.000431,0.003878
14315000,0.0324,0.013523,0.002678,0.000431,0.004349
14316000,0.0324,0.013523,0.002678,0.000431,0.004701
14317000,0.0324,0.013523,0.002678,0.000431,0.004349
14318000,0.0324,0.013523,0.002678,0.000431,0.004466
14319000,0.0324,0.013523,0.002678,0.000431,0.003996
14320000,0.0324,0.013523,0.002678,0.000431,0.003526
14321000,0.0324,0.013523,0.002678,0.000431,0.004349
14322000,0.0324,0.013523,0.002678,0.000431,0.003761
14323000,0.0324,0.013523,0.002678,0.000431,0.003878
14324000,0.0324,0.013523,0.002678,0.000431,0.003878
14325000,0.0324,0.013523,0.002678,0.000431,0.003996
14326000,0.0324,0.013523,0.002678,0.000431,0.003643
14327000,0.0324,0.013523,0.002678,0.000431,0.004231
14328000,0.0324,0.013523,0.002678,0.000431,0.003291
14329000,0.0324,0.013523,0.002678,0.000431,0.003761
14330000,0.0324,0.013523,0.002678,0.000431,0.004231
14331000,0.0324,0.013523,0.002678,0.000431,0.003761
14332000,0.0324,0.013523,0.002678,0.000431,0.004113
14333000,0.0324,0.013523,0.002678,0.000431,0.003996
14334000,0.0324,0.013523,0.002678,0.000431,0.003761
14335000,0.0324,0.013523,0.002678,0.000431,0.003643
14336000,0.0324,0.013523,0.002678,0.000431,0.004113
14337000,0.0324,0.013523,0.002678,0.000431,0.003996
14338000,0.0324,0.013523,0.002678,0.000431,0.003996
14339000,0.0324,0.013523,0.002678,0.000431,0.003643
14340000,0.0324,0.013523,0.002678,0.000431,0.004466
14341000,0.0324,0.013523,0.002678,0.000431,0.003526
14342000,0.0324,0.013523,0.002678,0.000431,0.004231
14343000,0.0324,0.013523,0.002678,0.000431,0.003878
14344000,0.0324,0.013523,0.002678,0.000431,0.003996
14345000,0.0324,0.013523,0.002678,0.000431,0.003761
14346000,0.0324,0.013523,0.002678,0.000431,0.003996
14347000,0.0324,0.013523,0.002678,0.000431,0.004349
14348000,0.0324,0.013523,0.002678,0.000431,0.003761
14349000,0.0324,0.013523,0.002678,0.000431,0.003761
14350000,0.0324,0.013523,0.002678,0.000431,0.003996
14351000,0.0324,0.013523,0.002678,0.000431,0.003526
14352000,0.0324,0.013523,0.002678,0.000431,0.003643
14353000,0.0324,0.013523,0.002678,0.000431,0.003878
14354000,0.0324,0.013523,0.002678,0.000431,0.004349
14355000,0.0324,0.013523,0.002678,0.000431,0.003643
14356000,0.0324,0.013523,0.002678,0.000431,0.003996
14357000,0.0324,0.013523,0.002678,0.000431,0.003996
14358000,0.0324,0.013523,0.002678,0.000431,0.003996
14359000,0.0324,0.013523,0.002678,0.000431,0.003526
14360000,0.0324,0.013523,0.002678,0.000431,0.004113
14361000,0.0324,0.013523,0.002678,0.000431,0.003996
14362000,0.0324,0.013523,0.002678,0.000431,0.003878
14363000,0.0324,0.013523,0.002678,0.000431,0.003878
14364000,0.0324,0.013523,0.002678,0.000431,0.004231
14365000,0.0324,0.013523,0.002678,0.000431,0.003761
14366000,0.0324,0.013523,0.002678,0.000431,0.003761
14367000,0.0324,0.013523,0.002678,0.000431,0.004349
14368000,0.0324,0.013523,0.002678,0.000431,0.003996
14369000,0.0324,0.013523,0.002678,0.000431,0.003996
14370000,0.0324,0.013523,0.002678,0.000431,0.003761
14371000,0.0324,0.013523,0.002678,0.000431,0.003878
14372000,0.0324,0.013523,0.002678,0.000431,0.003878
14373000,0.0324,0.013523,0.002678,0.000431,0.003996
14374000,0.0324,0.013523,0.002678,0.000431,0.004113
14375000,0.0324,0.013523,0.002678,0.000431,0.003996
14376000,0.0324,0.013523,0.002678,0.000431,0.003878
14377000,0.0324,0.013523,0.002678,0.000431,0.003408
14378000,0.0324,0.013523,0.002678,0.000431,0.003878
14379000,0.0324,0.013523,0.002678,0.000431,0.003878
14380000,0.0324,0.013523,0.002678,0.000431,0.004113
14381000,0.0324,0.013523,0.002678,0.000431,0.004466
14382000,0.0324,0.013523,0.002678,0.000431,0.003761
14383000,0.0324,0.013523,0.002678,0.000431,0.003878
14384000,0.0324,0.013523,0.002678,0.000431,0.004113
14385000,0.0324,0.013523,0.002678,0.000431,0.003643
14386000,0.0324,0.013523,0.002678,0.000431,0.003408
14387000,0.0324,0.013523,0.002678,0.000431,0.003761
14388000,0.0324,0.013523,0.002678,0.000431,0.003526
14389000,0.0324,0.013523,0.002678,0.000431,0.003643
14390000,0.0324,0.013523,0.002678,0.000431,0.004231
14391000,0.0324,0.013523,0.002678,0.000431,0.003996
14392000,0.0324,0.013523,0.002678,0.000431,0.003878
14393000,0.0324,0.013523,0.002678,0.000431,0.003761
14394000,0.0324,0.013523,0.002678,0.000431,0.003878
14395000,0.0324,0.013523,0.002678,0.000431,0.003526
14396000,0.0324,0.013523,0.002678,0.000431,0.003878
14397000,0.0324,0.013523,0.002678,0.000431,0.004113
14398000,0.0324,0.013523,0.002678,0.000431,0.003291
14399000,0.0324,0.013523,0.002678,0.000431,0.003761
14400000,0.0324,0.013523,0.002678,0.000431,0.003761
14401000,0.0324,0.013523,0.002678,0.000431,0.003761
14402000,0.0324,0.013523,0.002678,0.000431,0.003526
14403000,0.0324,0.013523,0.002678,0.000431,0.003408
14404000,0.0324,0.013523,0.002678,0.000431,0.003996
14405000,0.0324,0.013523,0.002678,0.000431,0.004231
14406000,0.0324,0.013523,0.002678,0.000431,0.003291
14407000,0.0324,0.013523,0.002678,0.000431,0.003643
14408000,0.0324,0.013523,0.002678,0.000431,0.004113
14409000,0.0324,0.013523,0.002678,0.000431,0.003996
14410000,0.0324,0.013523,0.002678,0.000431,0.003526
14411000,0.0324,0.013523,0.002678,0.000431,0.003761
14412000,0.0324,0.013523,0.002678,0.000431,0.004231
14413000,0.0324,0.013523,0.002678,0.000431,0.003408
14414000,0.0324,0.013523,0.002678,0.000431,0.004113
14415000,0.0324,0.013523,0.002678,0.000431,0.003526
14416000,0.0324,0.013523,0.002678,0.000431,0.003761
14417000,0.0324,0.013523,0.002678,0.000431,0.003526
14418000,0.0324,0.013523,0.002678,0.000431,0.003643
14419000,0.0324,0.013523,0.002678,0.000431,0.003996
14420000,0.0324,0.013523,0.002678,0.000431,0.003878
14421000,0.0324,0.013523,0.002678,0.000431,0.003643
14422000,0.0324,0.013523,0.002678,0.000431,0.003878
14423000,0.0324,0.013523,0.002678,0.000431,0.003878
14424000,0.0324,0.013523,0.002678,0.000431,0.003291
14425000,0.0324,0.013523,0.002678,0.000431,0.003878
14426000,0.0324,0.013523,0.002678,0.000431,0.003643
14427000,0.0324,0.013523,0.002678,0.000431,0.003408
14428000,0.0324,0.013523,0.002678,0.000431,0.003996
14429000,0.0324,0.013523,0.002678,0.000431,0.003526
14430000,0.0324,0.013523,0.002678,0.000431,0.004231
14431000,0.0324,0.013523,0.002678,0.000431,0.003291
14432000,0.0324,0.013523,0.002678,0.000431,0.004231
14433000,0.0324,0.013523,0.002678,0.000431,0.003761
14434000,0.0324,0.013523,0.002678,0.000431,0.003408
14435000,0.0324,0.013523,0.002678,0.000431,0.003526
14436000,0.0324,0.013523,0.002678,0.000431,0.003996
14437000,0.0324,0.013523,0.002678,0.000431,0.003761
14438000,0.0324,0.013523,0.002678,0.000431,0.003526
14439000,0.0324,0.013523,0.002678,0.000431,0.004349
14440000,0.0324,0.013523,0.002678,0.000431,0.003761
14441000,0.0324,0.013523,0.002678,0.000431,0.003291
14442000,0.0324,0.013523,0.002678,0.000431,0.003996
14443000,0.0324,0.013523,0.002678,0.000431,0.003643
14444000,0.0324,0.013523,0.002678,0.000431,0.003643
14445000,0.0324,0.013523,0.002678,0.000431,0.003643
14446000,0.0324,0.013523,0.002678,0.000431,0.004466
14447000,0.0324,0.013523,0.002678,0.000431,0.003643
14448000,0.0324,0.013523,0.002678,0.000431,0.003643
14449000,0.0324,0.013523,0.002678,0.000431,0.004113
14450000,0.0324,0.013523,0.002678,0.000431,0.003996
14451000,0.0324,0.013523,0.002678,0.000431,0.003408
14452000,0.0324,0.013523,0.002678,0.000431,0.004113
14453000,0.0324,0.013523,0.002678,0.000431,0.004113
14454000,0.0324,0.013523,0.002678,0.000431,0.003761
14455000,0.0324,0.013523,0.002678,0.000431,0.003878
14456000,0.0324,0.013523,0.002678,0.000431,0.003878
14457000,0.0324,0.013523,0.002678,0.000431,0.003643
14458000,0.0324,0.013523,0.002678,0.000431,0.003878
14459000,0.0324,0.013523,0.002678,0.000431,0.003173
14460000,0.0324,0.013523,0.002678,0.000431,0.003526
14461000,0.0324,0.013523,0.002678,0.000431,0.003056
14462000,0.0324,0.013523,0.002678,0.000431,0.002821
14463000,0.0324,0.013523,0.002678,0.000431,0.003408
14464000,0.0324,0.013523,0.002678,0.000431,0.003056
14465000,0.0324,0.013523,0.002678,0.000431,0.002703
14466000,0.0324,0.013523,0.002678,0.000431,0.003173
14467000,0.0324,0.013523,0.002678,0.000431,0.003291
14468000,0.0324,0.013523,0.002678,0.000431,0.002703
14469000,0.0324,0.013523,0.002678,0.000431,0.003173
14470000,0.0324,0.013523,0.002678,0.000431,0.003173
14471000,0.0324,0.013523,0.002678,0.000431,0.003291
14472000,0.0324,0.013523,0.002678,0.000431,0.002586
14473000,0.0324,0.013523,0.002678,0.000431,0.003291
14474000,0.0324,0.013523,0.002678,0.000431,0.003173
14475000,0.0324,0.013523,0.002678,0.000431,0.002586
14476000,0.0324,0.013523,0.002678,0.000431,0.002821
14477000,0.0324,0.013523,0.002678,0.000431,0.003056
14478000,0.0324,0.013523,0.002678,0.000431,0.003056
14479000,0.0324,0.013523,0.002678,0.000431,0.003291
14480000,0.0324,0.013523,0.002678,0.000431,0.002938
14481000,0.0324,0.013523,0.002678,0.000431,0.003173
14482000,0.0324,0.013523,0.002678,0.000431,0.003056
14483000,0.0324,0.013523,0.002678,0.000431,0.002821
14484000,0.0324,0.013523,0.002678,0.000431,0.003291
14485000,0.0324,0.013523,0.002678,0.000431,0.002938
14486000,0.0324,0.013523,0.002678,0.000431,0.002821
14487000,0.0324,0.013523,0.002678,0.000431,0.003173
14488000,0.0324,0.013523,0.002678,0.000431,0.003056
14489000,0.0324,0.013523,0.002678,0.000431,0.003056
14490000,0.0324,0.013523,0.002678,0.000431,0.002938
14491000,0.0324,0.013523,0.002678,0.000431,0.003173
14492000,0.0324,0.013523,0.002678,0.000431,0.003056
14493000,0.0324,0.013523,0.002678,0.000431,0.002703
14494000,0.0324,0.013523,0.002678,0.000431,0.003291
14495000,0.0324,0.013523,0.002678,0.000431,0.003173
14496000,0.0324,0.013523,0.002678,0.000431,0.002468
14497000,0.0324,0.013523,0.002678,0.000431,0.003408
14498000,0.0324,0.013523,0.002678,0.000431,0.003173
14499000,0.0324,0.013523,0.002678,0.000431,0.002821
14500000,0.0324,0.013523,0.002678,0.000431,0.002938
14501000,0.0324,0.013523,0.002678,0.000431,0.002938
14502000,0.0324,0.013523,0.002678,0.000431,0.003291
14503000,0.0324,0.013523,0.002678,0.000431,0.002703
14504000,0.0324,0.013523,0.002678,0.000431,0.003291
14505000,0.0324,0.013523,0.002678,0.000431,0.003056
14506000,0.0324,0.013523,0.002678,0.000431,0.002586
14507000,0.0324,0.013523,0.002678,0.000431,0.003291
14508000,0.0324,0.013523,0.002678,0.000431,0.002821
14509000,0.0324,0.013523,0.002678,0.000431,0.002938
14510000,0.0324,0.013523,0.002678,0.000431,0.002821
14511000,0.0324,0.013523,0.002678,0.000431,0.002938
14512000,0.0324,0.013523,0.002678,0.000431,0.003526
14513000,0.0324,0.013523,0.002678,0.000431,0.002821
14514000,0.0324,0.013523,0.002678,0.000431,0.002703
14515000,0.0324,0.013523,0.002678,0.000431,0.002586
14516000,0.0324,0.013523,0.002678,0.000431,0.002938
14517000,0.0324,0.013523,0.002678,0.000431,0.003173
14518000,0.0324,0.013523,0.002678,0.000431,0.003056
14519000,0.0324,0.013523,0.002678,0.000431,0.003291
14520000,0.0324,0.013523,0.002678,0.000431,0.002351
14521000,0.0324,0.013523,0.002678,0.000431,0.003173
14522000,0.0324,0.013523,0.002678,0.000431,0.003173
14523000,0.0324,0.013523,0.002678,0.000431,0.002703
14524000,0.0324,0.013523,0.002678,0.000431,0.003291
14525000,0.0324,0.013523,0.002678,0.000431,0.003408
14526000,0.0324,0.013523,0.002678,0.000431,0.002938
14527000,0.0324,0.013523,0.002678,0.000431,0.002703
14528000,0.0324,0.013523,0.002678,0.000431,0.002821
14529000,0.0324,0.013523,0.002678,0.000431,0.003408
14530000,0.0324,0.013523,0.002678,0.000431,0.002938
14531000,0.0324,0.013523,0.002678,0.000431,0.002938
14532000,0.0324,0.013523,0.002678,0.000431,0.003173
14533000,0.0324,0.013523,0.002678,0.000431,0.003173
14534000,0.0324,0.013523,0.002678,0.000431,0.002821
14535000,0.0324,0.013523,0.002678,0.000431,0.003173
14536000,0.0324,0.013523,0.002678,0.000431,0.003291
14537000,0.0324,0.013523,0.002678,0.000431,0.003056
14538000,0.0324,0.013523,0.002678,0.000431,0.002821
14539000,0.0324,0.013523,0.002678,0.000431,0.003173
14540000,0.0324,0.013523,0.002678,0.000431,0.002703
14541000,0.0324,0.013523,0.002678,0.000431,0.002703
14542000,0.0324,0.013523,0.002678,0.000431,0.003173
14543000,0.0324,0.013523,0.002678,0.000431,0.003173
14544000,0.0324,0.013523,0.002678,0.000431,0.002821
14545000,0.0324,0.013523,0.002678,0.000431,0.002938
14546000,0.0324,0.013523,0.002678,0.000431,0.002938
14547000,0.0324,0.013523,0.002678,0.000431,0.003291
14548000,0.0324,0.013523,0.002678,0.000431,0.002821
14549000,0.0324,0.013523,0.002678,0.000431,0.003291
14550000,0.0324,0.013523,0.002678,0.000431,0.003056
14551000,0.0324,0.013523,0.002678,0.000431,0.002821
14552000,0.0324,0.013523,0.002678,0.000431,0.002821
14553000,0.0324,0.013523,0.002678,0.000431,0.003173
14554000,0.0324,0.013523,0.002678,0.000431,0.003173
14555000,0.0324,0.013523,0.002678,0.000431,0.002468
14556000,0.0324,0.013523,0.002678,0.000431,0.003173
14557000,0.0324,0.013523,0.002678,0.000431,0.002586
14558000,0.0324,0.013523,0.002678,0.000431,0.003173
14559000,0.0324,0.013523,0.002678,0.000431,0.002351
14560000,0.0324,0.013523,0.002678,0.000431,0.003408
14561000,0.0324,0.013523,0.002678,0.000431,0.002821
14562000,0.0324,0.013523,0.002678,0.000431,0.003056
14563000,0.0324,0.013523,0.002678,0.000431,0.003173
14564000,0.0324,0.013523,0.002678,0.000431,0.002938
14565000,0.0324,0.013523,0.002678,0.000431,0.002821
14566000,0.0324,0.013523,0.002678,0.000431,0.003056
14567000,0.0324,0.013523,0.002678,0.000431,0.003173
14568000,0.0324,0.013523,0.002678,0.000431,0.002586
14569000,0.0324,0.013523,0.002678,0.000431,0.003408
14570000,0.0324,0.013523,0.002678,0.000431,0.002938
14571000,0.0324,0.013523,0.002678,0.000431,0.002703
14572000,0.0324,0.013523,0.002678,0.000431,0.003056
14573000,0.0324,0.013523,0.002678,0.000431,0.003056
14574000,0.0324,0.013523,0.002678,0.000431,0.003173
14575000,0.0324,0.013523,0.002678,0.000431,0.002821
14576000,0.0324,0.013523,0.002678,0.000431,0.003291
14577000,0.0324,0.013523,0.002678,0.000431,0.003056
14578000,0.0324,0.013523,0.002678,0.000431,0.002821
14579000,0.0324,0.013523,0.002678,0.000431,0.003056
14580000,0.0324,0.013523,0.002678,0.000431,0.003408
14581000,0.0324,0.013523,0.002678,0.000431,0.002586
14582000,0.0324,0.013523,0.002678,0.000431,0.003056
14583000,0.0324,0.013523,0.002678,0.000431,0.003173
14584000,0.0324,0.013523,0.002678,0.000431,0.002938
14585000,0.0324,0.013523,0.002678,0.000431,0.003173
14586000,0.0324,0.013523,0.002678,0.000431,0.002821
14587000,0.0324,0.013523,0.002678,0.000431,0.003056
14588000,0.0324,0.013523,0.002678,0.000431,0.003173
14589000,0.0324,0.013523,0.002678,0.000431,0.003056
14590000,0.0324,0.013523,0.002678,0.000431,0.003056
14591000,0.0324,0.013523,0.002678,0.000431,0.002821
14592000,0.0324,0.013523,0.002678,0.000431,0.002703
14593000,0.0324,0.013523,0.002678,0.000431,0.002938
14594000,0.0324,0.013523,0.002678,0.000431,0.003408
14595000,0.0324,0.013523,0.002678,0.000431,0.002703
14596000,0.0324,0.013523,0.002678,0.000431,0.003173
14597000,0.0324,0.013523,0.002678,0.000431,0.003173
14598000,0.0324,0.013523,0.002678,0.000431,0.002586
14599000,0.0324,0.013523,0.002678,0.000431,0.003056
14600000,0.0324,0.013523,0.002678,0.000431,0.002821
14601000,0.0324,0.013523,0.002678,0.000431,0.003173
14602000,0.0324,0.013523,0.002678,0.000431,0.002821
14603000,0.0324,0.013523,0.002678,0.000431,0.002586
14604000,0.0324,0.013523,0.002678,0.000431,0.003173
14605000,0.0324,0.013523,0.002678,0.000431,0.003173
14606000,0.0324,0.013523,0.002678,0.000431,0.003173
14607000,0.0324,0.013523,0.002678,0.000431,0.002586
14608000,0.0324,0.013523,0.002678,0.000431,0.003173
14609000,0.0324,0.013523,0.002678,0.000431,0.002821
14610000,0.0324,0.013523,0.002678,0.000431,0.002938
14611000,0.0324,0.013523,0.002678,0.000431,0.002938
14612000,0.0324,0.013523,0.002678,0.000431,0.003173
14613000,0.0324,0.013523,0.002678,0.000431,0.002586
14614000,0.0324,0.013523,0.002678,0.000431,0.003173
14615000,0.0324,0.013523,0.002678,0.000431,0.003056
14616000,0.0324,0.013523,0.002678,0.000431,0.002821
14617000,0.0324,0.013523,0.002678,0.000431,0.002703
14618000,0.0324,0.013523,0.002678,0.000431,0.003056
14619000,0.0324,0.013523,0.002678,0.000431,0.002821
14620000,0.0324,0.013523,0.002678,0.000431,0.003291
14621000,0.0324,0.013523,0.002678,0.000431,0.002938
14622000,0.0324,0.013523,0.002678,0.000431,0.002821
14623000,0.0324,0.013523,0.002678,0.000431,0.003173
14624000,0.0324,0.013523,0.002678,0.000431,0.003056
14625000,0.0324,0.013523,0.002678,0.000431,0.002821
14626000,0.0324,0.013523,0.002678,0.000431,0.003291
14627000,0.0324,0.013523,0.002678,0.000431,0.002938
14628000,0.0324,0.013523,0.002678,0.000431,0.003056
14629000,0.0324,0.013523,0.002678,0.000431,0.003173
14630000,0.0324,0.013523,0.002678,0.000431,0.002938
14631000,0.0324,0.013523,0.002678,0.000431,0.003056
14632000,0.0324,0.013523,0.002678,0.000431,0.002938
14633000,0.0324,0.013523,0.002678,0.000431,0.003056
14634000,0.0324,0.013523,0.002678,0.000431,0.002938
14635000,0.0324,0.013523,0.002678,0.000431,0.003291
14636000,0.0324,0.013523,0.002678,0.000431,0.003056
14637000,0.0324,0.013523,0.002678,0.000431,0.002938
14638000,0.0324,0.013523,0.002678,0.000431,0.002938
14639000,0.0324,0.013523,0.002678,0.000431,0.003291
14640000,0.0324,0.013523,0.002678,0.000431,0.002821
14641000,0.0324,0.013523,0.002678,0.000431,0.003173
14642000,0.0324,0.013523,0.002678,0.000431,0.003173
14643000,0.0324,0.013523,0.002678,0.000431,0.002938
14644000,0.0324,0.013523,0.002678,0.000431,0.002821
14645000,0.0324,0.013523,0.002678,0.000431,0.003056
14646000,0.0324,0.013523,0.002678,0.000431,0.003291
14647000,0.0324,0.013523,0.002678,0.000431,0.003291
14648000,0.0324,0.013523,0.002678,0.000431,0.002821
14649000,0.0324,0.013523,0.002678,0.000431,0.003173
14650000,0.0324,0.013523,0.002678,0.000431,0.003056
14651000,0.0324,0.013523,0.002678,0.000431,0.003173
14652000,0.0324,0.013523,0.002678,0.000431,0.003056
14653000,0.0324,0.013523,0.002678,0.000431,0.003056
14654000,0.0324,0.013523,0.002678,0.000431,0.003056
14655000,0.0324,0.013523,0.002678,0.000431,0.002821
14656000,0.0324,0.013523,0.002678,0.000431,0.003056
14657000,0.0324,0.013523,0.002678,0.000431,0.003056
14658000,0.0324,0.013523,0.002678,0.000431,0.002938
14659000,0.0324,0.013523,0.002678,0.000431,0.003291
14660000,0.0324,0.013523,0.002678,0.000431,0.003173
14661000,0.0324,0.013523,0.002678,0.000431,0.003056
14662000,0.0324,0.013523,0.002678,0.000431,0.003056
14663000,0.0324,0.013523,0.002678,0.000431,0.003173
14664000,0.0324,0.013523,0.002678,0.000431,0.003056
14665000,0.0324,0.013523,0.002678,0.000431,0.003173
14666000,0.0324,0.013523,0.002678,0.000431,0.002821
14667000,0.0324,0.013523,0.002678,0.000431,0.002703
14668000,0.0324,0.013523,0.002678,0.000431,0.002938
14669000,0.0324,0.013523,0.002678,0.000431,0.002586
14670000,0.0324,0.013523,0.002678,0.000431,0.003056
14671000,0.0324,0.013523,0.002678,0.000431,0.002468
14672000,0.0324,0.013523,0.002678,0.000431,0.003408
14673000,0.0324,0.013523,0.002678,0.000431,0.002821
14674000,0.0324,0.013523,0.002678,0.000431,0.003056
14675000,0.0324,0.013523,0.002678,0.000431,0.003056
14676000,0.0324,0.013523,0.002678,0.000431,0.002821
14677000,0.0324,0.013523,0.002678,0.000431,0.002938
14678000,0.0324,0.013523,0.002678,0.000431,0.003173
14679000,0.0324,0.013523,0.002678,0.000431,0.002938
14680000,0.0324,0.013523,0.002678,0.000431,0.003173
14681000,0.0324,0.013523,0.002678,0.000431,0.003173
14682000,0.0324,0.013523,0.002678,0.000431,0.002703
14683000,0.0324,0.013523,0.002678,0.000431,0.002821
14684000,0.0324,0.013523,0.002678,0.000431,0.003408
14685000,0.0324,0.013523,0.002678,0.000431,0.002468
14686000,0.0324,0.013523,0.002678,0.000431,0.002586
14687000,0.0324,0.013523,0.002678,0.000431,0.003173
14688000,0.0324,0.013523,0.002678,0.000431,0.003056
14689000,0.0324,0.013523,0.002678,0.000431,0.003056
14690000,0.0324,0.013523,0.002678,0.000431,0.002938
14691000,0.0324,0.013523,0.002678,0.000431,0.003056
14692000,0.0324,0.013523,0.002678,0.000431,0.002938
14693000,0.0324,0.013523,0.002678,0.000431,0.002821
14694000,0.0324,0.013523,0.002678,0.000431,0.003056
14695000,0.0324,0.013523,0.002678,0.000431,0.003173
14696000,0.0324,0.013523,0.002678,0.000431,0.003056
14697000,0.0324,0.013523,0.002678,0.000431,0.002821
14698000,0.0324,0.013523,0.002678,0.000431,0.003408
14699000,0.0324,0.013523,0.002678,0.000431,0.002821
14700000,0.0324,0.013523,0.002678,0.000431,0.003173
14701000,0.0324,0.013523,0.002678,0.000431,0.003291
14702000,0.0324,0.013523,0.002678,0.000431,0.003291
14703000,0.0324,0.013523,0.002678,0.000431,0.002938
14704000,0.0324,0.013523,0.002678,0.000431,0.002821
14705000,0.0324,0.013523,0.002678,0.000431,0.002821
14706000,0.0324,0.013523,0.002678,0.000431,0.003056
14707000,0.0324,0.013523,0.002678,0.000431,0.003056
14708000,0.0324,0.013523,0.002678,0.000431,0.002938
14709000,0.0324,0.013523,0.002678,0.000431,0.003408
14710000,0.0324,0.013523,0.002678,0.000431,0.002938
14711000,0.0324,0.013523,0.002678,0.000431,0.002938
14712000,0.0324,0.013523,0.002678,0.000431,0.003291
14713000,0.0324,0.013523,0.002678,0.000431,0.002703
14714000,0.0324,0.013523,0.002678,0.000431,0.002938
14715000,0.0324,0.013523,0.002678,0.000431,0.003173
14716000,0.0324,0.013523,0.002678,0.000431,0.003056
14717000,0.0324,0.013523,0.002678,0.000431,0.002938
14718000,0.0324,0.013523,0.002678,0.000431,0.002821
14719000,0.0324,0.013523,0.002678,0.000431,0.002821
14720000,0.0324,0.013523,0.002678,0.000431,0.002586
14721000,0.0324,0.013523,0.002678,0.000431,0.003173
14722000,0.0324,0.013523,0.002678,0.000431,0.003056
14723000,0.0324,0.013523,0.002678,0.000431,0.003173
14724000,0.0324,0.013523,0.002678,0.000431,0.002938
14725000,0.0324,0.013523,0.002678,0.000431,0.002703
14726000,0.0324,0.013523,0.002678,0.000431,0.003643
14727000,0.0324,0.013523,0.002678,0.000431,0.003173
14728000,0.0324,0.013523,0.002678,0.000431,0.002703
14729000,0.0324,0.013523,0.002678,0.000431,0.003173
14730000,0.0324,0.013523,0.002678,0.000431,0.003173
14731000,0.0324,0.013523,0.002678,0.000431,0.002586
14732000,0.0324,0.013523,0.002678,0.000431,0.003408
14733000,0.0324,0.013523,0.002678,0.000431,0.002938
14734000,0.0324,0.013523,0.002678,0.000431,0.003173
14735000,0.0324,0.013523,0.002678,0.000431,0.002938
14736000,0.0324,0.013523,0.002678,0.000431,0.002938
14737000,0.0324,0.013523,0.002678,0.000431,0.003056
14738000,0.0324,0.013523,0.002678,0.000431,0.002821
14739000,0.0324,0.013523,0.002678,0.000431,0.003291
14740000,0.0324,0.013523,0.002678,0.000431,0.003056
14741000,0.0324,0.013523,0.002678,0.000431,0.002938
14742000,0.0324,0.013523,0.002678,0.000431,0.002938
14743000,0.0324,0.013523,0.002678,0.000431,0.003291
14744000,0.0324,0.013523,0.002678,0.000431,0.002586
14745000,0.0324,0.013523,0.002678,0.000431,0.002703
14746000,0.0324,0.013523,0.002678,0.000431,0.002938
14747000,0.0324,0.013523,0.002678,0.000431,0.003173
14748000,0.0324,0.013523,0.002678,0.000431,0.002938
14749000,0.0324,0.013523,0.002678,0.000431,0.002703
14750000,0.0324,0.013523,0.002678,0.000431,0.003408
14751000,0.0324,0.013523,0.002678,0.000431,0.002938
14752000,0.0324,0.013523,0.002678,0.000431,0.002586
14753000,0.0324,0.013523,0.002678,0.000431,0.003173
14754000,0.0324,0.013523,0.002678,0.000431,0.003173
14755000,0.0324,0.013523,0.002678,0.000431,0.002703
14756000,0.0324,0.013523,0.002678,0.000431,0.003056
14757000,0.0324,0.013523,0.002678,0.000431,0.002938
14758000,0.0324,0.013523,0.002678,0.000431,0.003056
14759000,0.0324,0.013523,0.002678,0.000431,0.002821
14760000,0.0324,0.013523,0.002678,0.000431,0.003056
14761000,0.0324,0.013523,0.002678,0.000431,0.003056
14762000,0.0324,0.013523,0.002678,0.000431,0.002938
14763000,0.0324,0.013523,0.002678,0.000431,0.003173
14764000,0.0324,0.013523,0.002678,0.000431,0.003526
14765000,0.0324,0.013523,0.002678,0.000431,0.002703
14766000,0.0324,0.013523,0.002678,0.000431,0.002938
14767000,0.0324,0.013523,0.002678,0.000431,0.003173
14768000,0.0324,0.013523,0.002678,0.000431,0.002703
14769000,0.0324,0.013523,0.002678,0.000431,0.003056
14770000,0.0324,0.013523,0.002678,0.000431,0.003173
14771000,0.0324,0.013523,0.002678,0.000431,0.003173
14772000,0.0324,0.013523,0.002678,0.000431,0.002821
14773000,0.0324,0.013523,0.002678,0.000431,0.002938
14774000,0.0324,0.013523,0.002678,0.000431,0.003291
14775000,0.0324,0.013523,0.002678,0.000431,0.002938
14776000,0.0324,0.013523,0.002678,0.000431,0.003056
14777000,0.0324,0.013523,0.002678,0.000431,0.002821
14778000,0.0324,0.013523,0.002678,0.000431,0.002703
14779000,0.0324,0.013523,0.002678,0.000431,0.003056
14780000,0.0324,0.013523,0.002678,0.000431,0.003056
14781000,0.0324,0.013523,0.002678,0.000431,0.003173
14782000,0.0324,0.013523,0.002678,0.000431,0.002821
14783000,0.0324,0.013523,0.002678,0.000431,0.002703
14784000,0.0324,0.013523,0.002678,0.000431,0.003056
14785000,0.0324,0.013523,0.002678,0.000431,0.003056
14786000,0.0324,0.013523,0.002678,0.000431,0.002351
14787000,0.0324,0.013523,0.002678,0.000431,0.003291
14788000,0.0324,0.013523,0.002678,0.000431,0.003056
14789000,0.0324,0.013523,0.002678,0.000431,0.003173
14790000,0.0324,0.013523,0.002678,0.000431,0.002821
14791000,0.0324,0.013523,0.002678,0.000431,0.003408
14792000,0.0324,0.013523,0.002678,0.000431,0.002938
14793000,0.0324,0.013523,0.002678,0.000431,0.002938
14794000,0.0324,0.013523,0.002678,0.000431,0.003291
14795000,0.0324,0.013523,0.002678,0.000431,0.003173
14796000,0.0324,0.013523,0.002678,0.000431,0.002703
14797000,0.0324,0.013523,0.002678,0.000431,0.003056
14798000,0.0324,0.013523,0.002678,0.000431,0.002821
14799000,0.0324,0.013523,0.002678,0.000431,0.002586
14800000,0.0324,0.013523,0.002678,0.000431,0.002821
14801000,0.0324,0.013523,0.002678,0.000431,0.003408
14802000,0.0324,0.013523,0.002678,0.000431,0.003408
14803000,0.0324,0.013523,0.002678,0.000431,0.002703
14804000,0.0324,0.013523,0.002678,0.000431,0.003173
14805000,0.0324,0.013523,0.002678,0.000431,0.003173
14806000,0.0324,0.013523,0.002678,0.000431,0.003056
14807000,0.0324,0.013523,0.002678,0.000431,0.002938
14808000,0.0324,0.013523,0.002678,0.000431,0.003056
14809000,0.0324,0.013523,0.002678,0.000431,0.002938
14810000,0.0324,0.013523,0.002678,0.000431,0.002821
14811000,0.0324,0.013523,0.002678,0.000431,0.002938
14812000,0.0324,0.013523,0.002678,0.000431,0.003408
14813000,0.0324,0.013523,0.002678,0.000431,0.002703
14814000,0.0324,0.013523,0.002678,0.000431,0.002821
14815000,0.0324,0.013523,0.002678,0.000431,0.003526
14816000,0.0324,0.013523,0.002678,0.000431,0.002586
14817000,0.0324,0.013523,0.002678,0.000431,0.003173
14818000,0.0324,0.013523,0.002678,0.000431,0.003408
14819000,0.0324,0.013523,0.002678,0.000431,0.003056
14820000,0.0324,0.013523,0.002678,0.000431,0.002821
14821000,0.0324,0.013523,0.002678,0.000431,0.002821
14822000,0.0324,0.013523,0.002678,0.000431,0.003173
14823000,0.0324,0.013523,0.002678,0.000431,0.003173
14824000,0.0324,0.013523,0.002678,0.000431,0.002703
14825000,0.0324,0.013523,0.002678,0.000431,0.003526
14826000,0.0324,0.013523,0.002678,0.000431,0.003173
14827000,0.0324,0.013523,0.002678,0.000431,0.002703
14828000,0.0324,0.013523,0.002678,0.000431,0.003173
14829000,0.0324,0.013523,0.002678,0.000431,0.002821
14830000,0.0324,0.013523,0.002678,0.000431,0.003291
14831000,0.0324,0.013523,0.002678,0.000431,0.002586
14832000,0.0324,0.013523,0.002678,0.000431,0.003291
14833000,0.0324,0.013523,0.002678,0.000431,0.003173
14834000,0.0324,0.013523,0.002678,0.000431,0.002586
14835000,0.0324,0.013523,0.002678,0.000431,0.003173
14836000,0.0324,0.013523,0.002678,0.000431,0.003291
14837000,0.0324,0.013523,0.002678,0.000431,0.003173
14838000,0.0324,0.013523,0.002678,0.000431,0.003056
14839000,0.0324,0.013523,0.002678,0.000431,0.003291
14840000,0.0324,0.013523,0.002678,0.000431,0.002586
14841000,0.0324,0.013523,0.002678,0.000431,0.003173
14842000,0.0324,0.013523,0.002678,0.000431,0.002938
14843000,0.0324,0.013523,0.002678,0.000431,0.003173
14844000,0.0324,0.013523,0.002678,0.000431,0.003056
14845000,0.0324,0.013523,0.002678,0.000431,0.002938
14846000,0.0324,0.013523,0.002678,0.000431,0.002821
14847000,0.0324,0.013523,0.002678,0.000431,0.002938
14848000,0.0324,0.013523,0.002678,0.000431,0.002938
14849000,0.0324,0.013523,0.002678,0.000431,0.003526
14850000,0.0324,0.013523,0.002678,0.000431,0.002938
14851000,0.0324,0.013523,0.002678,0.000431,0.002821
14852000,0.0324,0.013523,0.002678,0.000431,0.002821
14853000,0.0324,0.013523,0.002678,0.000431,0.002586
14854000,0.0324,0.013523,0.002678,0.000431,0.003408
14855000,0.0324,0.013523,0.002678,0.000431,0.002938
14856000,0.0324,0.013523,0.002678,0.000431,0.003056
14857000,0.0324,0.013523,0.002678,0.000431,0.002821
14858000,0.0324,0.013523,0.002678,0.000431,0.002938
14859000,0.0324,0.013523,0.002678,0.000431,0.003526
14860000,0.0324,0.013523,0.002678,0.000431,0.002938
14861000,0.0324,0.013523,0.002678,0.000431,0.002586
14862000,0.0324,0.013523,0.002678,0.000431,0.003408
14863000,0.0324,0.013523,0.002678,0.000431,0.003056
14864000,0.0324,0.013523,0.002678,0.000431,0.002938
14865000,0.0324,0.013523,0.002678,0.000431,0.003056
14866000,0.0324,0.013523,0.002678,0.000431,0.003173
14867000,0.0324,0.013523,0.002678,0.000431,0.003173
14868000,0.0324,0.013523,0.002678,0.000431,0.002938
14869000,0.0324,0.013523,0.002678,0.000431,0.002938
14870000,0.0324,0.013523,0.002678,0.000431,0.002821
14871000,0.0324,0.013523,0.002678,0.000431,0.002586
14872000,0.0324,0.013523,0.002678,0.000431,0.002703
14873000,0.0324,0.013523,0.002678,0.000431,0.002938
14874000,0.0324,0.013523,0.002678,0.000431,0.003408
14875000,0.0324,0.013523,0.002678,0.000431,0.002703
14876000,0.0324,0.013523,0.002678,0.000431,0.003173
14877000,0.0324,0.013523,0.002678,0.000431,0.002351
14878000,0.0324,0.013523,0.002678,0.000431,0.003291
14879000,0.0324,0.013523,0.002678,0.000431,0.002938
14880000,0.0324,0.013523,0.002678,0.000431,0.003056
14881000,0.0324,0.013523,0.002678,0.000431,0.003056
14882000,0.0324,0.013523,0.002678,0.000431,0.002703
14883000,0.0324,0.013523,0.002678,0.000431,0.003056
14884000,0.0324,0.013523,0.002678,0.000431,0.002821
14885000,0.0324,0.013523,0.002678,0.000431,0.002938
14886000,0.0324,0.013523,0.002678,0.000431,0.002938
14887000,0.0324,0.013523,0.002678,0.000431,0.003291
14888000,0.0324,0.013523,0.002678,0.000431,0.003291
14889000,0.0324,0.013523,0.002678,0.000431,0.002586
14890000,0.0324,0.013523,0.002678,0.000431,0.003291
14891000,0.0324,0.013523,0.002678,0.000431,0.003291
14892000,0.0324,0.013523,0.002678,0.000431,0.003056
14893000,0.0324,0.013523,0.002678,0.000431,0.002703
14894000,0.0324,0.013523,0.002678,0.000431,0.003408
14895000,0.0324,0.013523,0.002678,0.000431,0.003056
14896000,0.0324,0.013523,0.002678,0.000431,0.002703
14897000,0.0324,0.013523,0.002678,0.000431,0.003408
14898000,0.0324,0.013523,0.002678,0.000431,0.003056
14899000,0.0324,0.013523,0.002678,0.000431,0.002468
14900000,0.0324,0.013523,0.002678,0.000431,0.003173
14901000,0.0324,0.013523,0.002678,0.000431,0.003056
14902000,0.0324,0.013523,0.002678,0.000431,0.003173
14903000,0.0324,0.013523,0.002678,0.000431,0.003056
14904000,0.0324,0.013523,0.002678,0.000431,0.002703
14905000,0.0324,0.013523,0.002678,0.000431,0.003526
14906000,0.0324,0.013523,0.002678,0.000431,0.002586
14907000,0.0324,0.013523,0.002678,0.000431,0.002821
14908000,0.0324,0.013523,0.002678,0.000431,0.003526
14909000,0.0324,0.013523,0.002678,0.000431,0.003056
14910000,0.0324,0.013523,0.002678,0.000431,0.003056
14911000,0.0324,0.013523,0.002678,0.000431,0.002821
14912000,0.0324,0.013523,0.002678,0.000431,0.003408
14913000,0.0324,0.013523,0.002678,0.000431,0.002703
14914000,0.0324,0.013523,0.002678,0.000431,0.002938
14915000,0.0324,0.013523,0.002678,0.000431,0.003526
14916000,0.0324,0.013523,0.002678,0.000431,0.003291
14917000,0.0324,0.013523,0.002678,0.000431,0.002821
14918000,0.0324,0.013523,0.002678,0.000431,0.003056
14919000,0.0324,0.013523,0.002678,0.000431,0.003291
14920000,0.0324,0.013523,0.002678,0.000431,0.002938
14921000,0.0324,0.013523,0.002678,0.000431,0.002938
14922000,0.0324,0.013523,0.002678,0.000431,0.003173
14923000,0.0324,0.013523,0.002678,0.000431,0.003056
14924000,0.0324,0.013523,0.002678,0.000431,0.002468
14925000,0.0324,0.013523,0.002678,0.000431,0.003291
14926000,0.0324,0.013523,0.002678,0.000431,0.002938
14927000,0.0324,0.013523,0.002678,0.000431,0.003173
14928000,0.0324,0.013523,0.002678,0.000431,0.002821
14929000,0.0324,0.013523,0.002678,0.000431,0.003173
14930000,0.0324,0.013523,0.002678,0.000431,0.003056
14931000,0.0324,0.013523,0.002678,0.000431,0.002351
14932000,0.0324,0.013523,0.002678,0.000431,0.003408
14933000,0.0324,0.013523,0.002678,0.000431,0.003056
14934000,0.0324,0.013523,0.002678,0.000431,0.002703
14935000,0.0324,0.013523,0.002678,0.000431,0.002821
14936000,0.0324,0.013523,0.002678,0.000431,0.003173
14937000,0.0324,0.013523,0.002678,0.000431,0.002938
14938000,0.0324,0.013523,0.002678,0.000431,0.002468
14939000,0.0324,0.013523,0.002678,0.000431,0.003291
14940000,0.0324,0.013523,0.002678,0.000431,0.003173
14941000,0.0324,0.013523,0.002678,0.000431,0.002703
14942000,0.0324,0.013523,0.002678,0.000431,0.003173
14943000,0.0324,0.013523,0.002678,0.000431,0.003173
14944000,0.0324,0.013523,0.002678,0.000431,0.002938
14945000,0.0324,0.013523,0.002678,0.000431,0.002703
14946000,0.0324,0.013523,0.002678,0.000431,0.002821
14947000,0.0324,0.013523,0.002678,0.000431,0.003291
14948000,0.0324,0.013523,0.002678,0.000431,0.002468
14949000,0.0324,0.013523,0.002678,0.000431,0.003056
14950000,0.0324,0.013523,0.002678,0.000431,0.003408
14951000,0.0324,0.013523,0.002678,0.000431,0.002586
14952000,0.0324,0.013523,0.002678,0.000431,0.002703
14953000,0.0324,0.013523,0.002678,0.000431,0.003173
14954000,0.0324,0.013523,0.002678,0.000431,0.003173
14955000,0.0324,0.013523,0.002678,0.000431,0.002703
14956000,0.0324,0.013523,0.002678,0.000431,0.002938
14957000,0.0324,0.013523,0.002678,0.000431,0.003408
14958000,0.0324,0.013523,0.002678,0.000431,0.002703
14959000,0.0324,0.013523,0.002678,0.000431,0.002703
14960000,0.0324,0.013523,0.002678,0.000431,0.002703
14961000,0.0324,0.013523,0.002678,0.000431,0.002703
14962000,0.0324,0.013523,0.002678,0.000431,0.002703
14963000,0.0324,0.013523,0.002678,0.000431,0.002703
14964000,0.0324,0.013523,0.002678,0.000431,0.002703
14965000,0.0324,0.013523,0.002678,0.000431,0.002468
14966000,0.0324,0.013523,0.002678,0.000431,0.002233
14967000,0.0324,0.013523,0.002678,0.000431,0.003056
14968000,0.0324,0.013523,0.002678,0.000431,0.002703
14969000,0.0324,0.013523,0.002678,0.000431,0.002821
14970000,0.0324,0.013523,0.002678,0.000431,0.002586
14971000,0.0324,0.013523,0.002678,0.000431,0.002938
14972000,0.0324,0.013523,0.002678,0.000431,0.002468
14973000,0.0324,0.013523,0.002678,0.000431,0.002586
14974000,0.0324,0.013523,0.002678,0.000431,0.002821
14975000,0.0324,0.013523,0.002678,0.000431,0.002938
14976000,0.0324,0.013523,0.002678,0.000431,0.002468
14977000,0.0324,0.013523,0.002678,0.000431,0.002938
14978000,0.0324,0.013523,0.002678,0.000431,0.002703
14979000,0.0324,0.013523,0.002678,0.000431,0.002468
14980000,0.0324,0.013523,0.002678,0.000431,0.003056
14981000,0.0324,0.013523,0.002678,0.000431,0.002703
14982000,0.0324,0.013523,0.002678,0.000431,0.002821
14983000,0.0324,0.013523,0.002678,0.000431,0.002586
14984000,0.0324,0.013523,0.002678,0.000431,0.002586
14985000,0.0324,0.013523,0.002678,0.000431,0.002703
14986000,0.0324,0.013523,0.002678,0.000431,0.002468
14987000,0.0324,0.013523,0.002678,0.000431,0.002821
14988000,0.0324,0.013523,0.002678,0.000431,0.002821
14989000,0.0324,0.013523,0.002678,0.000431,0.002821
14990000,0.0324,0.013523,0.002678,0.000431,0.002468
14991000,0.0324,0.013523,0.002678,0.000431,0.002821
14992000,0.0324,0.013523,0.002678,0.000431,0.002586
14993000,0.0324,0.013523,0.002678,0.000431,0.002586
14994000,0.0324,0.013523,0.002678,0.000431,0.002703
14995000,0.0324,0.013523,0.002678,0.000431,0.003056
14996000,0.0324,0.013523,0.002678,0.000431,0.002351
14997000,0.0324,0.013523,0.002678,0.000431,0.002586
14998000,0.0324,0.013523,0.002678,0.000431,0.002703
14999000,0.0324,0.013523,0.002678,0.000431,0.002938
