Cycle,Area(mm^2),PeakDynamic(W),SubthresholdLeakage(W),GateLeakage(W),RunTimeDynamic(W)
4000000,0.0324,0.013523,0.002678,0.000431,0.000705
4001000,0.0324,0.013523,0.002678,0.000431,0.000353
4002000,0.0324,0.013523,0.002678,0.000431,0.000588
4003000,0.0324,0.013523,0.002678,0.000431,0.000353
4004000,0.0324,0.013523,0.002678,0.000431,0.000705
4005000,0.0324,0.013523,0.002678,0.000431,0.000470
4006000,0.0324,0.013523,0.002678,0.000431,0.000588
4007000,0.0324,0.013523,0.002678,0.000431,0.000353
4008000,0.0324,0.013523,0.002678,0.000431,0.000588
4009000,0.0324,0.013523,0.002678,0.000431,0.000353
4010000,0.0324,0.013523,0.002678,0.000431,0.000588
4011000,0.0324,0.013523,0.002678,0.000431,0.000353
4012000,0.0324,0.013523,0.002678,0.000431,0.000470
4013000,0.0324,0.013523,0.002678,0.000431,0.000470
4014000,0.0324,0.013523,0.002678,0.000431,0.000470
4015000,0.0324,0.013523,0.002678,0.000431,0.000470
4016000,0.0324,0.013523,0.002678,0.000431,0.000470
4017000,0.0324,0.013523,0.002678,0.000431,0.000470
4018000,0.0324,0.013523,0.002678,0.000431,0.000588
4019000,0.0324,0.013523,0.002678,0.000431,0.000353
4020000,0.0324,0.013523,0.002678,0.000431,0.000705
4021000,0.0324,0.013523,0.002678,0.000431,0.000353
4022000,0.0324,0.013523,0.002678,0.000431,0.000588
4023000,0.0324,0.013523,0.002678,0.000431,0.000588
4024000,0.0324,0.013523,0.002678,0.000431,0.000470
4025000,0.0324,0.013523,0.002678,0.000431,0.000588
4026000,0.0324,0.013523,0.002678,0.000431,0.000353
4027000,0.0324,0.013523,0.002678,0.000431,0.000588
4028000,0.0324,0.013523,0.002678,0.000431,0.000353
4029000,0.0324,0.013523,0.002678,0.000431,0.000588
4030000,0.0324,0.013523,0.002678,0.000431,0.000353
4031000,0.0324,0.013523,0.002678,0.000431,0.000588
4032000,0.0324,0.013523,0.002678,0.000431,0.000353
4033000,0.0324,0.013523,0.002678,0.000431,0.000588
4034000,0.0324,0.013523,0.002678,0.000431,0.000470
4035000,0.0324,0.013523,0.002678,0.000431,0.000470
4036000,0.0324,0.013523,0.002678,0.000431,0.000470
4037000,0.0324,0.013523,0.002678,0.000431,0.000588
4038000,0.0324,0.013523,0.002678,0.000431,0.000470
4039000,0.0324,0.013523,0.002678,0.000431,0.000705
4040000,0.0324,0.013523,0.002678,0.000431,0.000353
4041000,0.0324,0.013523,0.002678,0.000431,0.000588
4042000,0.0324,0.013523,0.002678,0.000431,0.000470
4043000,0.0324,0.013523,0.002678,0.000431,0.000588
4044000,0.0324,0.013523,0.002678,0.000431,0.000588
4045000,0.0324,0.013523,0.002678,0.000431,0.000470
4046000,0.0324,0.013523,0.002678,0.000431,0.000588
4047000,0.0324,0.013523,0.002678,0.000431,0.000353
4048000,0.0324,0.013523,0.002678,0.000431,0.000588
4049000,0.0324,0.013523,0.002678,0.000431,0.000353
4050000,0.0324,0.013523,0.002678,0.000431,0.000588
4051000,0.0324,0.013523,0.002678,0.000431,0.000353
4052000,0.0324,0.013523,0.002678,0.000431,0.000588
4053000,0.0324,0.013523,0.002678,0.000431,0.000353
4054000,0.0324,0.013523,0.002678,0.000431,0.000588
4055000,0.0324,0.013523,0.002678,0.000431,0.000705
4056000,0.0324,0.013523,0.002678,0.000431,0.000470
4057000,0.0324,0.013523,0.002678,0.000431,0.000470
4058000,0.0324,0.013523,0.002678,0.000431,0.000470
4059000,0.0324,0.013523,0.002678,0.000431,0.000588
4060000,0.0324,0.013523,0.002678,0.000431,0.000353
4061000,0.0324,0.013523,0.002678,0.000431,0.000588
4062000,0.0324,0.013523,0.002678,0.000431,0.000353
4063000,0.0324,0.013523,0.002678,0.000431,0.000588
4064000,0.0324,0.013523,0.002678,0.000431,0.000353
4065000,0.0324,0.013523,0.002678,0.000431,0.000588
4066000,0.0324,0.013523,0.002678,0.000431,0.000353
4067000,0.0324,0.013523,0.002678,0.000431,0.000588
4068000,0.0324,0.013523,0.002678,0.000431,0.000353
4069000,0.0324,0.013523,0.002678,0.000431,0.000823
4070000,0.0324,0.013523,0.002678,0.000431,0.000353
4071000,0.0324,0.013523,0.002678,0.000431,0.000588
4072000,0.0324,0.013523,0.002678,0.000431,0.000353
4073000,0.0324,0.013523,0.002678,0.000431,0.000470
4074000,0.0324,0.013523,0.002678,0.000431,0.000470
4075000,0.0324,0.013523,0.002678,0.000431,0.000470
4076000,0.0324,0.013523,0.002678,0.000431,0.000470
4077000,0.0324,0.013523,0.002678,0.000431,0.000470
4078000,0.0324,0.013523,0.002678,0.000431,0.000470
4079000,0.0324,0.013523,0.002678,0.000431,0.000470
4080000,0.0324,0.013523,0.002678,0.000431,0.000588
4081000,0.0324,0.013523,0.002678,0.000431,0.000353
4082000,0.0324,0.013523,0.002678,0.000431,0.000470
4083000,0.0324,0.013523,0.002678,0.000431,0.000470
4084000,0.0324,0.013523,0.002678,0.000431,0.000588
4085000,0.0324,0.013523,0.002678,0.000431,0.000353
4086000,0.0324,0.013523,0.002678,0.000431,0.000588
4087000,0.0324,0.013523,0.002678,0.000431,0.000353
4088000,0.0324,0.013523,0.002678,0.000431,0.000588
4089000,0.0324,0.013523,0.002678,0.000431,0.000353
4090000,0.0324,0.013523,0.002678,0.000431,0.000588
4091000,0.0324,0.013523,0.002678,0.000431,0.000353
4092000,0.0324,0.013523,0.002678,0.000431,0.000588
4093000,0.0324,0.013523,0.002678,0.000431,0.000353
4094000,0.0324,0.013523,0.002678,0.000431,0.000588
4095000,0.0324,0.013523,0.002678,0.000431,0.000470
4096000,0.0324,0.013523,0.002678,0.000431,0.000705
4097000,0.0324,0.013523,0.002678,0.000431,0.000353
4098000,0.0324,0.013523,0.002678,0.000431,0.000705
4099000,0.0324,0.013523,0.002678,0.000431,0.000470
4100000,0.0324,0.013523,0.002678,0.000431,0.000470
4101000,0.0324,0.013523,0.002678,0.000431,0.000470
4102000,0.0324,0.013523,0.002678,0.000431,0.000470
4103000,0.0324,0.013523,0.002678,0.000431,0.000470
4104000,0.0324,0.013523,0.002678,0.000431,0.000470
4105000,0.0324,0.013523,0.002678,0.000431,0.000353
4106000,0.0324,0.013523,0.002678,0.000431,0.000588
4107000,0.0324,0.013523,0.002678,0.000431,0.000353
4108000,0.0324,0.013523,0.002678,0.000431,0.000588
4109000,0.0324,0.013523,0.002678,0.000431,0.000353
4110000,0.0324,0.013523,0.002678,0.000431,0.000588
4111000,0.0324,0.013523,0.002678,0.000431,0.000353
4112000,0.0324,0.013523,0.002678,0.000431,0.000588
4113000,0.0324,0.013523,0.002678,0.000431,0.000353
4114000,0.0324,0.013523,0.002678,0.000431,0.000588
4115000,0.0324,0.013523,0.002678,0.000431,0.000470
4116000,0.0324,0.013523,0.002678,0.000431,0.000470
4117000,0.0324,0.013523,0.002678,0.000431,0.000470
4118000,0.0324,0.013523,0.002678,0.000431,0.000470
4119000,0.0324,0.013523,0.002678,0.000431,0.000470
4120000,0.0324,0.013523,0.002678,0.000431,0.000470
4121000,0.0324,0.013523,0.002678,0.000431,0.000470
4122000,0.0324,0.013523,0.002678,0.000431,0.000470
4123000,0.0324,0.013523,0.002678,0.000431,0.000470
4124000,0.0324,0.013523,0.002678,0.000431,0.000470
4125000,0.0324,0.013523,0.002678,0.000431,0.000588
4126000,0.0324,0.013523,0.002678,0.000431,0.000353
4127000,0.0324,0.013523,0.002678,0.000431,0.000588
4128000,0.0324,0.013523,0.002678,0.000431,0.000353
4129000,0.0324,0.013523,0.002678,0.000431,0.000588
4130000,0.0324,0.013523,0.002678,0.000431,0.000353
4131000,0.0324,0.013523,0.002678,0.000431,0.000470
4132000,0.0324,0.013523,0.002678,0.000431,0.000470
4133000,0.0324,0.013523,0.002678,0.000431,0.000470
4134000,0.0324,0.013523,0.002678,0.000431,0.000470
4135000,0.0324,0.013523,0.002678,0.000431,0.000588
4136000,0.0324,0.013523,0.002678,0.000431,0.000353
4137000,0.0324,0.013523,0.002678,0.000431,0.000588
4138000,0.0324,0.013523,0.002678,0.000431,0.000353
4139000,0.0324,0.013523,0.002678,0.000431,0.000470
4140000,0.0324,0.013523,0.002678,0.000431,0.000470
4141000,0.0324,0.013523,0.002678,0.000431,0.000470
4142000,0.0324,0.013523,0.002678,0.000431,0.000470
4143000,0.0324,0.013523,0.002678,0.000431,0.000470
4144000,0.0324,0.013523,0.002678,0.000431,0.000470
4145000,0.0324,0.013523,0.002678,0.000431,0.000470
4146000,0.0324,0.013523,0.002678,0.000431,0.000470
4147000,0.0324,0.013523,0.002678,0.000431,0.000588
4148000,0.0324,0.013523,0.002678,0.000431,0.000470
4149000,0.0324,0.013523,0.002678,0.000431,0.000588
4150000,0.0324,0.013523,0.002678,0.000431,0.000353
4151000,0.0324,0.013523,0.002678,0.000431,0.000705
4152000,0.0324,0.013523,0.002678,0.000431,0.000470
4153000,0.0324,0.013523,0.002678,0.000431,0.000588
4154000,0.0324,0.013523,0.002678,0.000431,0.000470
4155000,0.0324,0.013523,0.002678,0.000431,0.000470
4156000,0.0324,0.013523,0.002678,0.000431,0.000470
4157000,0.0324,0.013523,0.002678,0.000431,0.000470
4158000,0.0324,0.013523,0.002678,0.000431,0.000470
4159000,0.0324,0.013523,0.002678,0.000431,0.000470
4160000,0.0324,0.013523,0.002678,0.000431,0.000470
4161000,0.0324,0.013523,0.002678,0.000431,0.000470
4162000,0.0324,0.013523,0.002678,0.000431,0.000470
4163000,0.0324,0.013523,0.002678,0.000431,0.000470
4164000,0.0324,0.013523,0.002678,0.000431,0.000470
4165000,0.0324,0.013523,0.002678,0.000431,0.000470
4166000,0.0324,0.013523,0.002678,0.000431,0.000470
4167000,0.0324,0.013523,0.002678,0.000431,0.000470
4168000,0.0324,0.013523,0.002678,0.000431,0.000470
4169000,0.0324,0.013523,0.002678,0.000431,0.000353
4170000,0.0324,0.013523,0.002678,0.000431,0.000705
4171000,0.0324,0.013523,0.002678,0.000431,0.000353
4172000,0.0324,0.013523,0.002678,0.000431,0.000705
4173000,0.0324,0.013523,0.002678,0.000431,0.000588
4174000,0.0324,0.013523,0.002678,0.000431,0.000588
4175000,0.0324,0.013523,0.002678,0.000431,0.000470
4176000,0.0324,0.013523,0.002678,0.000431,0.000470
4177000,0.0324,0.013523,0.002678,0.000431,0.000588
4178000,0.0324,0.013523,0.002678,0.000431,0.000470
4179000,0.0324,0.013523,0.002678,0.000431,0.000705
4180000,0.0324,0.013523,0.002678,0.000431,0.000353
4181000,0.0324,0.013523,0.002678,0.000431,0.000705
4182000,0.0324,0.013523,0.002678,0.000431,0.000588
4183000,0.0324,0.013523,0.002678,0.000431,0.000470
4184000,0.0324,0.013523,0.002678,0.000431,0.000470
4185000,0.0324,0.013523,0.002678,0.000431,0.000470
4186000,0.0324,0.013523,0.002678,0.000431,0.000705
4187000,0.0324,0.013523,0.002678,0.000431,0.000353
4188000,0.0324,0.013523,0.002678,0.000431,0.000705
4189000,0.0324,0.013523,0.002678,0.000431,0.000588
4190000,0.0324,0.013523,0.002678,0.000431,0.000470
4191000,0.0324,0.013523,0.002678,0.000431,0.000705
4192000,0.0324,0.013523,0.002678,0.000431,0.000353
4193000,0.0324,0.013523,0.002678,0.000431,0.000705
4194000,0.0324,0.013523,0.002678,0.000431,0.000470
4195000,0.0324,0.013523,0.002678,0.000431,0.000470
4196000,0.0324,0.013523,0.002678,0.000431,0.000470
4197000,0.0324,0.013523,0.002678,0.000431,0.000470
4198000,0.0324,0.013523,0.002678,0.000431,0.000470
4199000,0.0324,0.013523,0.002678,0.000431,0.000470
4200000,0.0324,0.013523,0.002678,0.000431,0.000470
4201000,0.0324,0.013523,0.002678,0.000431,0.000470
4202000,0.0324,0.013523,0.002678,0.000431,0.000353
4203000,0.0324,0.013523,0.002678,0.000431,0.000588
4204000,0.0324,0.013523,0.002678,0.000431,0.000353
4205000,0.0324,0.013523,0.002678,0.000431,0.000588
4206000,0.0324,0.013523,0.002678,0.000431,0.000470
4207000,0.0324,0.013523,0.002678,0.000431,0.000470
4208000,0.0324,0.013523,0.002678,0.000431,0.000470
4209000,0.0324,0.013523,0.002678,0.000431,0.000470
4210000,0.0324,0.013523,0.002678,0.000431,0.000470
4211000,0.0324,0.013523,0.002678,0.000431,0.000470
4212000,0.0324,0.013523,0.002678,0.000431,0.000470
4213000,0.0324,0.013523,0.002678,0.000431,0.000588
4214000,0.0324,0.013523,0.002678,0.000431,0.000470
4215000,0.0324,0.013523,0.002678,0.000431,0.000705
4216000,0.0324,0.013523,0.002678,0.000431,0.000353
4217000,0.0324,0.013523,0.002678,0.000431,0.000705
4218000,0.0324,0.013523,0.002678,0.000431,0.000470
4219000,0.0324,0.013523,0.002678,0.000431,0.000470
4220000,0.0324,0.013523,0.002678,0.000431,0.000470
4221000,0.0324,0.013523,0.002678,0.000431,0.000705
4222000,0.0324,0.013523,0.002678,0.000431,0.000353
4223000,0.0324,0.013523,0.002678,0.000431,0.000588
4224000,0.0324,0.013523,0.002678,0.000431,0.000588
4225000,0.0324,0.013523,0.002678,0.000431,0.000470
4226000,0.0324,0.013523,0.002678,0.000431,0.000588
4227000,0.0324,0.013523,0.002678,0.000431,0.000353
4228000,0.0324,0.013523,0.002678,0.000431,0.000588
4229000,0.0324,0.013523,0.002678,0.000431,0.000353
4230000,0.0324,0.013523,0.002678,0.000431,0.000588
4231000,0.0324,0.013523,0.002678,0.000431,0.000353
4232000,0.0324,0.013523,0.002678,0.000431,0.000588
4233000,0.0324,0.013523,0.002678,0.000431,0.000353
4234000,0.0324,0.013523,0.002678,0.000431,0.000588
4235000,0.0324,0.013523,0.002678,0.000431,0.000470
4236000,0.0324,0.013523,0.002678,0.000431,0.000470
4237000,0.0324,0.013523,0.002678,0.000431,0.000705
4238000,0.0324,0.013523,0.002678,0.000431,0.000470
4239000,0.0324,0.013523,0.002678,0.000431,0.000470
4240000,0.0324,0.013523,0.002678,0.000431,0.000470
4241000,0.0324,0.013523,0.002678,0.000431,0.000705
4242000,0.0324,0.013523,0.002678,0.000431,0.000588
4243000,0.0324,0.013523,0.002678,0.000431,0.000470
4244000,0.0324,0.013523,0.002678,0.000431,0.000705
4245000,0.0324,0.013523,0.002678,0.000431,0.000353
4246000,0.0324,0.013523,0.002678,0.000431,0.000588
4247000,0.0324,0.013523,0.002678,0.000431,0.000353
4248000,0.0324,0.013523,0.002678,0.000431,0.000705
4249000,0.0324,0.013523,0.002678,0.000431,0.000588
4250000,0.0324,0.013523,0.002678,0.000431,0.000470
4251000,0.0324,0.013523,0.002678,0.000431,0.000705
4252000,0.0324,0.013523,0.002678,0.000431,0.000353
4253000,0.0324,0.013523,0.002678,0.000431,0.000705
4254000,0.0324,0.013523,0.002678,0.000431,0.000588
4255000,0.0324,0.013523,0.002678,0.000431,0.000470
4256000,0.0324,0.013523,0.002678,0.000431,0.000588
4257000,0.0324,0.013523,0.002678,0.000431,0.000353
4258000,0.0324,0.013523,0.002678,0.000431,0.000588
4259000,0.0324,0.013523,0.002678,0.000431,0.000353
4260000,0.0324,0.013523,0.002678,0.000431,0.000588
4261000,0.0324,0.013523,0.002678,0.000431,0.000470
4262000,0.0324,0.013523,0.002678,0.000431,0.000470
4263000,0.0324,0.013523,0.002678,0.000431,0.000470
4264000,0.0324,0.013523,0.002678,0.000431,0.000470
4265000,0.0324,0.013523,0.002678,0.000431,0.000470
4266000,0.0324,0.013523,0.002678,0.000431,0.000353
4267000,0.0324,0.013523,0.002678,0.000431,0.000588
4268000,0.0324,0.013523,0.002678,0.000431,0.000353
4269000,0.0324,0.013523,0.002678,0.000431,0.000588
4270000,0.0324,0.013523,0.002678,0.000431,0.000353
4271000,0.0324,0.013523,0.002678,0.000431,0.000705
4272000,0.0324,0.013523,0.002678,0.000431,0.000353
4273000,0.0324,0.013523,0.002678,0.000431,0.000705
4274000,0.0324,0.013523,0.002678,0.000431,0.000470
4275000,0.0324,0.013523,0.002678,0.000431,0.000588
4276000,0.0324,0.013523,0.002678,0.000431,0.000353
4277000,0.0324,0.013523,0.002678,0.000431,0.000588
4278000,0.0324,0.013523,0.002678,0.000431,0.000353
4279000,0.0324,0.013523,0.002678,0.000431,0.000705
4280000,0.0324,0.013523,0.002678,0.000431,0.000588
4281000,0.0324,0.013523,0.002678,0.000431,0.000470
4282000,0.0324,0.013523,0.002678,0.000431,0.000588
4283000,0.0324,0.013523,0.002678,0.000431,0.000353
4284000,0.0324,0.013523,0.002678,0.000431,0.000588
4285000,0.0324,0.013523,0.002678,0.000431,0.000353
4286000,0.0324,0.013523,0.002678,0.000431,0.000588
4287000,0.0324,0.013523,0.002678,0.000431,0.000353
4288000,0.0324,0.013523,0.002678,0.000431,0.000470
4289000,0.0324,0.013523,0.002678,0.000431,0.000470
4290000,0.0324,0.013523,0.002678,0.000431,0.000470
4291000,0.0324,0.013523,0.002678,0.000431,0.000470
4292000,0.0324,0.013523,0.002678,0.000431,0.000353
4293000,0.0324,0.013523,0.002678,0.000431,0.000588
4294000,0.0324,0.013523,0.002678,0.000431,0.000353
4295000,0.0324,0.013523,0.002678,0.000431,0.000588
4296000,0.0324,0.013523,0.002678,0.000431,0.000353
4297000,0.0324,0.013523,0.002678,0.000431,0.000705
4298000,0.0324,0.013523,0.002678,0.000431,0.000588
4299000,0.0324,0.013523,0.002678,0.000431,0.000470
4300000,0.0324,0.013523,0.002678,0.000431,0.000588
4301000,0.0324,0.013523,0.002678,0.000431,0.000353
4302000,0.0324,0.013523,0.002678,0.000431,0.000588
4303000,0.0324,0.013523,0.002678,0.000431,0.000353
4304000,0.0324,0.013523,0.002678,0.000431,0.000588
4305000,0.0324,0.013523,0.002678,0.000431,0.000353
4306000,0.0324,0.013523,0.002678,0.000431,0.000588
4307000,0.0324,0.013523,0.002678,0.000431,0.000353
4308000,0.0324,0.013523,0.002678,0.000431,0.000588
4309000,0.0324,0.013523,0.002678,0.000431,0.000353
4310000,0.0324,0.013523,0.002678,0.000431,0.000588
4311000,0.0324,0.013523,0.002678,0.000431,0.000353
4312000,0.0324,0.013523,0.002678,0.000431,0.000470
4313000,0.0324,0.013523,0.002678,0.000431,0.000470
4314000,0.0324,0.013523,0.002678,0.000431,0.000470
4315000,0.0324,0.013523,0.002678,0.000431,0.000470
4316000,0.0324,0.013523,0.002678,0.000431,0.000470
4317000,0.0324,0.013523,0.002678,0.000431,0.000705
4318000,0.0324,0.013523,0.002678,0.000431,0.000353
4319000,0.0324,0.013523,0.002678,0.000431,0.000588
4320000,0.0324,0.013523,0.002678,0.000431,0.000470
4321000,0.0324,0.013523,0.002678,0.000431,0.000470
4322000,0.0324,0.013523,0.002678,0.000431,0.000588
4323000,0.0324,0.013523,0.002678,0.000431,0.000353
4324000,0.0324,0.013523,0.002678,0.000431,0.000588
4325000,0.0324,0.013523,0.002678,0.000431,0.000353
4326000,0.0324,0.013523,0.002678,0.000431,0.000588
4327000,0.0324,0.013523,0.002678,0.000431,0.000353
4328000,0.0324,0.013523,0.002678,0.000431,0.000588
4329000,0.0324,0.013523,0.002678,0.000431,0.000353
4330000,0.0324,0.013523,0.002678,0.000431,0.000588
4331000,0.0324,0.013523,0.002678,0.000431,0.000353
4332000,0.0324,0.013523,0.002678,0.000431,0.000588
4333000,0.0324,0.013523,0.002678,0.000431,0.000353
4334000,0.0324,0.013523,0.002678,0.000431,0.000588
4335000,0.0324,0.013523,0.002678,0.000431,0.000353
4336000,0.0324,0.013523,0.002678,0.000431,0.000588
4337000,0.0324,0.013523,0.002678,0.000431,0.000470
4338000,0.0324,0.013523,0.002678,0.000431,0.000353
4339000,0.0324,0.013523,0.002678,0.000431,0.000588
4340000,0.0324,0.013523,0.002678,0.000431,0.000588
4341000,0.0324,0.013523,0.002678,0.000431,0.000588
4342000,0.0324,0.013523,0.002678,0.000431,0.000470
4343000,0.0324,0.013523,0.002678,0.000431,0.000470
4344000,0.0324,0.013523,0.002678,0.000431,0.000470
4345000,0.0324,0.013523,0.002678,0.000431,0.000470
4346000,0.0324,0.013523,0.002678,0.000431,0.000470
4347000,0.0324,0.013523,0.002678,0.000431,0.000353
4348000,0.0324,0.013523,0.002678,0.000431,0.000588
4349000,0.0324,0.013523,0.002678,0.000431,0.000353
4350000,0.0324,0.013523,0.002678,0.000431,0.000588
4351000,0.0324,0.013523,0.002678,0.000431,0.000470
4352000,0.0324,0.013523,0.002678,0.000431,0.000470
4353000,0.0324,0.013523,0.002678,0.000431,0.000470
4354000,0.0324,0.013523,0.002678,0.000431,0.000470
4355000,0.0324,0.013523,0.002678,0.000431,0.000470
4356000,0.0324,0.013523,0.002678,0.000431,0.000588
4357000,0.0324,0.013523,0.002678,0.000431,0.000470
4358000,0.0324,0.013523,0.002678,0.000431,0.000470
4359000,0.0324,0.013523,0.002678,0.000431,0.000353
4360000,0.0324,0.013523,0.002678,0.000431,0.000823
4361000,0.0324,0.013523,0.002678,0.000431,0.000353
4362000,0.0324,0.013523,0.002678,0.000431,0.000588
4363000,0.0324,0.013523,0.002678,0.000431,0.000470
4364000,0.0324,0.013523,0.002678,0.000431,0.000588
4365000,0.0324,0.013523,0.002678,0.000431,0.000353
4366000,0.0324,0.013523,0.002678,0.000431,0.000470
4367000,0.0324,0.013523,0.002678,0.000431,0.000353
4368000,0.0324,0.013523,0.002678,0.000431,0.000588
4369000,0.0324,0.013523,0.002678,0.000431,0.000353
4370000,0.0324,0.013523,0.002678,0.000431,0.000705
4371000,0.0324,0.013523,0.002678,0.000431,0.000353
4372000,0.0324,0.013523,0.002678,0.000431,0.000588
4373000,0.0324,0.013523,0.002678,0.000431,0.000353
4374000,0.0324,0.013523,0.002678,0.000431,0.000705
4375000,0.0324,0.013523,0.002678,0.000431,0.000353
4376000,0.0324,0.013523,0.002678,0.000431,0.000588
4377000,0.0324,0.013523,0.002678,0.000431,0.000353
4378000,0.0324,0.013523,0.002678,0.000431,0.000588
4379000,0.0324,0.013523,0.002678,0.000431,0.000353
4380000,0.0324,0.013523,0.002678,0.000431,0.000588
4381000,0.0324,0.013523,0.002678,0.000431,0.000353
4382000,0.0324,0.013523,0.002678,0.000431,0.000588
4383000,0.0324,0.013523,0.002678,0.000431,0.000353
4384000,0.0324,0.013523,0.002678,0.000431,0.000588
4385000,0.0324,0.013523,0.002678,0.000431,0.000353
4386000,0.0324,0.013523,0.002678,0.000431,0.000588
4387000,0.0324,0.013523,0.002678,0.000431,0.000353
4388000,0.0324,0.013523,0.002678,0.000431,0.000588
4389000,0.0324,0.013523,0.002678,0.000431,0.000353
4390000,0.0324,0.013523,0.002678,0.000431,0.000470
4391000,0.0324,0.013523,0.002678,0.000431,0.000470
4392000,0.0324,0.013523,0.002678,0.000431,0.000470
4393000,0.0324,0.013523,0.002678,0.000431,0.000470
4394000,0.0324,0.013523,0.002678,0.000431,0.000470
4395000,0.0324,0.013523,0.002678,0.000431,0.000470
4396000,0.0324,0.013523,0.002678,0.000431,0.000588
4397000,0.0324,0.013523,0.002678,0.000431,0.000470
4398000,0.0324,0.013523,0.002678,0.000431,0.000588
4399000,0.0324,0.013523,0.002678,0.000431,0.000353
4400000,0.0324,0.013523,0.002678,0.000431,0.000588
4401000,0.0324,0.013523,0.002678,0.000431,0.000353
4402000,0.0324,0.013523,0.002678,0.000431,0.000588
4403000,0.0324,0.013523,0.002678,0.000431,0.000353
4404000,0.0324,0.013523,0.002678,0.000431,0.000588
4405000,0.0324,0.013523,0.002678,0.000431,0.000353
4406000,0.0324,0.013523,0.002678,0.000431,0.000588
4407000,0.0324,0.013523,0.002678,0.000431,0.000470
4408000,0.0324,0.013523,0.002678,0.000431,0.000588
4409000,0.0324,0.013523,0.002678,0.000431,0.000470
4410000,0.0324,0.013523,0.002678,0.000431,0.000705
4411000,0.0324,0.013523,0.002678,0.000431,0.000353
4412000,0.0324,0.013523,0.002678,0.000431,0.000588
4413000,0.0324,0.013523,0.002678,0.000431,0.000470
4414000,0.0324,0.013523,0.002678,0.000431,0.000588
4415000,0.0324,0.013523,0.002678,0.000431,0.000470
4416000,0.0324,0.013523,0.002678,0.000431,0.000588
4417000,0.0324,0.013523,0.002678,0.000431,0.000353
4418000,0.0324,0.013523,0.002678,0.000431,0.000470
4419000,0.0324,0.013523,0.002678,0.000431,0.000470
4420000,0.0324,0.013523,0.002678,0.000431,0.000470
4421000,0.0324,0.013523,0.002678,0.000431,0.000470
4422000,0.0324,0.013523,0.002678,0.000431,0.000470
4423000,0.0324,0.013523,0.002678,0.000431,0.000470
4424000,0.0324,0.013523,0.002678,0.000431,0.000588
4425000,0.0324,0.013523,0.002678,0.000431,0.000353
4426000,0.0324,0.013523,0.002678,0.000431,0.000588
4427000,0.0324,0.013523,0.002678,0.000431,0.000353
4428000,0.0324,0.013523,0.002678,0.000431,0.000705
4429000,0.0324,0.013523,0.002678,0.000431,0.000470
4430000,0.0324,0.013523,0.002678,0.000431,0.000470
4431000,0.0324,0.013523,0.002678,0.000431,0.000470
4432000,0.0324,0.013523,0.002678,0.000431,0.000470
4433000,0.0324,0.013523,0.002678,0.000431,0.000470
4434000,0.0324,0.013523,0.002678,0.000431,0.000705
4435000,0.0324,0.013523,0.002678,0.000431,0.000470
4436000,0.0324,0.013523,0.002678,0.000431,0.000470
4437000,0.0324,0.013523,0.002678,0.000431,0.000588
4438000,0.0324,0.013523,0.002678,0.000431,0.000470
4439000,0.0324,0.013523,0.002678,0.000431,0.000705
4440000,0.0324,0.013523,0.002678,0.000431,0.000353
4441000,0.0324,0.013523,0.002678,0.000431,0.000705
4442000,0.0324,0.013523,0.002678,0.000431,0.000588
4443000,0.0324,0.013523,0.002678,0.000431,0.000588
4444000,0.0324,0.013523,0.002678,0.000431,0.000588
4445000,0.0324,0.013523,0.002678,0.000431,0.000470
4446000,0.0324,0.013523,0.002678,0.000431,0.000705
4447000,0.0324,0.013523,0.002678,0.000431,0.000353
4448000,0.0324,0.013523,0.002678,0.000431,0.000588
4449000,0.0324,0.013523,0.002678,0.000431,0.000353
4450000,0.0324,0.013523,0.002678,0.000431,0.000588
4451000,0.0324,0.013523,0.002678,0.000431,0.000353
4452000,0.0324,0.013523,0.002678,0.000431,0.000588
4453000,0.0324,0.013523,0.002678,0.000431,0.000353
4454000,0.0324,0.013523,0.002678,0.000431,0.000588
4455000,0.0324,0.013523,0.002678,0.000431,0.000470
4456000,0.0324,0.013523,0.002678,0.000431,0.000470
4457000,0.0324,0.013523,0.002678,0.000431,0.000470
4458000,0.0324,0.013523,0.002678,0.000431,0.000470
4459000,0.0324,0.013523,0.002678,0.000431,0.000470
4460000,0.0324,0.013523,0.002678,0.000431,0.000353
4461000,0.0324,0.013523,0.002678,0.000431,0.000588
4462000,0.0324,0.013523,0.002678,0.000431,0.000353
4463000,0.0324,0.013523,0.002678,0.000431,0.000588
4464000,0.0324,0.013523,0.002678,0.000431,0.000353
4465000,0.0324,0.013523,0.002678,0.000431,0.000705
4466000,0.0324,0.013523,0.002678,0.000431,0.000353
4467000,0.0324,0.013523,0.002678,0.000431,0.000588
4468000,0.0324,0.013523,0.002678,0.000431,0.000353
4469000,0.0324,0.013523,0.002678,0.000431,0.000588
4470000,0.0324,0.013523,0.002678,0.000431,0.000353
4471000,0.0324,0.013523,0.002678,0.000431,0.000705
4472000,0.0324,0.013523,0.002678,0.000431,0.000353
4473000,0.0324,0.013523,0.002678,0.000431,0.000705
4474000,0.0324,0.013523,0.002678,0.000431,0.000588
4475000,0.0324,0.013523,0.002678,0.000431,0.000470
4476000,0.0324,0.013523,0.002678,0.000431,0.000705
4477000,0.0324,0.013523,0.002678,0.000431,0.000353
4478000,0.0324,0.013523,0.002678,0.000431,0.000588
4479000,0.0324,0.013523,0.002678,0.000431,0.000353
4480000,0.0324,0.013523,0.002678,0.000431,0.000588
4481000,0.0324,0.013523,0.002678,0.000431,0.000353
4482000,0.0324,0.013523,0.002678,0.000431,0.000470
4483000,0.0324,0.013523,0.002678,0.000431,0.000470
4484000,0.0324,0.013523,0.002678,0.000431,0.000470
4485000,0.0324,0.013523,0.002678,0.000431,0.000470
4486000,0.0324,0.013523,0.002678,0.000431,0.000470
4487000,0.0324,0.013523,0.002678,0.000431,0.000470
4488000,0.0324,0.013523,0.002678,0.000431,0.000470
4489000,0.0324,0.013523,0.002678,0.000431,0.000470
4490000,0.0324,0.013523,0.002678,0.000431,0.000470
4491000,0.0324,0.013523,0.002678,0.000431,0.000470
4492000,0.0324,0.013523,0.002678,0.000431,0.000470
4493000,0.0324,0.013523,0.002678,0.000431,0.000588
4494000,0.0324,0.013523,0.002678,0.000431,0.000353
4495000,0.0324,0.013523,0.002678,0.000431,0.000588
4496000,0.0324,0.013523,0.002678,0.000431,0.000353
4497000,0.0324,0.013523,0.002678,0.000431,0.000588
4498000,0.0324,0.013523,0.002678,0.000431,0.000353
4499000,0.0324,0.013523,0.002678,0.000431,0.000588
4500000,0.0324,0.013523,0.002678,0.000431,0.000353
4501000,0.0324,0.013523,0.002678,0.000431,0.000705
4502000,0.0324,0.013523,0.002678,0.000431,0.000588
4503000,0.0324,0.013523,0.002678,0.000431,0.000470
4504000,0.0324,0.013523,0.002678,0.000431,0.000588
4505000,0.0324,0.013523,0.002678,0.000431,0.000353
4506000,0.0324,0.013523,0.002678,0.000431,0.000588
4507000,0.0324,0.013523,0.002678,0.000431,0.000353
4508000,0.0324,0.013523,0.002678,0.000431,0.000470
4509000,0.0324,0.013523,0.002678,0.000431,0.000470
4510000,0.0324,0.013523,0.002678,0.000431,0.000470
4511000,0.0324,0.013523,0.002678,0.000431,0.000470
4512000,0.0324,0.013523,0.002678,0.000431,0.000353
4513000,0.0324,0.013523,0.002678,0.000431,0.000588
4514000,0.0324,0.013523,0.002678,0.000431,0.000353
4515000,0.0324,0.013523,0.002678,0.000431,0.000588
4516000,0.0324,0.013523,0.002678,0.000431,0.000353
4517000,0.0324,0.013523,0.002678,0.000431,0.000705
4518000,0.0324,0.013523,0.002678,0.000431,0.000588
4519000,0.0324,0.013523,0.002678,0.000431,0.000470
4520000,0.0324,0.013523,0.002678,0.000431,0.000705
4521000,0.0324,0.013523,0.002678,0.000431,0.000353
4522000,0.0324,0.013523,0.002678,0.000431,0.000705
4523000,0.0324,0.013523,0.002678,0.000431,0.000588
4524000,0.0324,0.013523,0.002678,0.000431,0.000470
4525000,0.0324,0.013523,0.002678,0.000431,0.000705
4526000,0.0324,0.013523,0.002678,0.000431,0.000470
4527000,0.0324,0.013523,0.002678,0.000431,0.000470
4528000,0.0324,0.013523,0.002678,0.000431,0.000470
4529000,0.0324,0.013523,0.002678,0.000431,0.000588
4530000,0.0324,0.013523,0.002678,0.000431,0.000470
4531000,0.0324,0.013523,0.002678,0.000431,0.000353
4532000,0.0324,0.013523,0.002678,0.000431,0.000588
4533000,0.0324,0.013523,0.002678,0.000431,0.000353
4534000,0.0324,0.013523,0.002678,0.000431,0.000588
4535000,0.0324,0.013523,0.002678,0.000431,0.000353
4536000,0.0324,0.013523,0.002678,0.000431,0.000588
4537000,0.0324,0.013523,0.002678,0.000431,0.000353
4538000,0.0324,0.013523,0.002678,0.000431,0.000705
4539000,0.0324,0.013523,0.002678,0.000431,0.000353
4540000,0.0324,0.013523,0.002678,0.000431,0.000588
4541000,0.0324,0.013523,0.002678,0.000431,0.000353
4542000,0.0324,0.013523,0.002678,0.000431,0.000588
4543000,0.0324,0.013523,0.002678,0.000431,0.000353
4544000,0.0324,0.013523,0.002678,0.000431,0.000588
4545000,0.0324,0.013523,0.002678,0.000431,0.000353
4546000,0.0324,0.013523,0.002678,0.000431,0.000705
4547000,0.0324,0.013523,0.002678,0.000431,0.000353
4548000,0.0324,0.013523,0.002678,0.000431,0.000588
4549000,0.0324,0.013523,0.002678,0.000431,0.000353
4550000,0.0324,0.013523,0.002678,0.000431,0.000588
4551000,0.0324,0.013523,0.002678,0.000431,0.000235
4552000,0.0324,0.013523,0.002678,0.000431,0.000588
4553000,0.0324,0.013523,0.002678,0.000431,0.000353
4554000,0.0324,0.013523,0.002678,0.000431,0.000588
4555000,0.0324,0.013523,0.002678,0.000431,0.000353
4556000,0.0324,0.013523,0.002678,0.000431,0.000823
4557000,0.0324,0.013523,0.002678,0.000431,0.000353
4558000,0.0324,0.013523,0.002678,0.000431,0.000588
4559000,0.0324,0.013523,0.002678,0.000431,0.000353
4560000,0.0324,0.013523,0.002678,0.000431,0.000470
4561000,0.0324,0.013523,0.002678,0.000431,0.000353
4562000,0.0324,0.013523,0.002678,0.000431,0.000705
4563000,0.0324,0.013523,0.002678,0.000431,0.000353
4564000,0.0324,0.013523,0.002678,0.000431,0.000588
4565000,0.0324,0.013523,0.002678,0.000431,0.000470
4566000,0.0324,0.013523,0.002678,0.000431,0.000588
4567000,0.0324,0.013523,0.002678,0.000431,0.000353
4568000,0.0324,0.013523,0.002678,0.000431,0.000705
4569000,0.0324,0.013523,0.002678,0.000431,0.000353
4570000,0.0324,0.013523,0.002678,0.000431,0.000705
4571000,0.0324,0.013523,0.002678,0.000431,0.000588
4572000,0.0324,0.013523,0.002678,0.000431,0.000470
4573000,0.0324,0.013523,0.002678,0.000431,0.000588
4574000,0.0324,0.013523,0.002678,0.000431,0.000353
4575000,0.0324,0.013523,0.002678,0.000431,0.000588
4576000,0.0324,0.013523,0.002678,0.000431,0.000353
4577000,0.0324,0.013523,0.002678,0.000431,0.000705
4578000,0.0324,0.013523,0.002678,0.000431,0.000470
4579000,0.0324,0.013523,0.002678,0.000431,0.000470
4580000,0.0324,0.013523,0.002678,0.000431,0.000470
4581000,0.0324,0.013523,0.002678,0.000431,0.000470
4582000,0.0324,0.013523,0.002678,0.000431,0.000470
4583000,0.0324,0.013523,0.002678,0.000431,0.000353
4584000,0.0324,0.013523,0.002678,0.000431,0.000588
4585000,0.0324,0.013523,0.002678,0.000431,0.000353
4586000,0.0324,0.013523,0.002678,0.000431,0.000588
4587000,0.0324,0.013523,0.002678,0.000431,0.000353
4588000,0.0324,0.013523,0.002678,0.000431,0.000588
4589000,0.0324,0.013523,0.002678,0.000431,0.000353
4590000,0.0324,0.013523,0.002678,0.000431,0.000588
4591000,0.0324,0.013523,0.002678,0.000431,0.000353
4592000,0.0324,0.013523,0.002678,0.000431,0.000588
4593000,0.0324,0.013523,0.002678,0.000431,0.000353
4594000,0.0324,0.013523,0.002678,0.000431,0.000705
4595000,0.0324,0.013523,0.002678,0.000431,0.000588
4596000,0.0324,0.013523,0.002678,0.000431,0.000470
4597000,0.0324,0.013523,0.002678,0.000431,0.000588
4598000,0.0324,0.013523,0.002678,0.000431,0.000353
4599000,0.0324,0.013523,0.002678,0.000431,0.000705
4600000,0.0324,0.013523,0.002678,0.000431,0.000470
4601000,0.0324,0.013523,0.002678,0.000431,0.000705
4602000,0.0324,0.013523,0.002678,0.000431,0.000353
4603000,0.0324,0.013523,0.002678,0.000431,0.000588
4604000,0.0324,0.013523,0.002678,0.000431,0.000353
4605000,0.0324,0.013523,0.002678,0.000431,0.000470
4606000,0.0324,0.013523,0.002678,0.000431,0.000470
4607000,0.0324,0.013523,0.002678,0.000431,0.000470
4608000,0.0324,0.013523,0.002678,0.000431,0.000470
4609000,0.0324,0.013523,0.002678,0.000431,0.000588
4610000,0.0324,0.013523,0.002678,0.000431,0.000588
4611000,0.0324,0.013523,0.002678,0.000431,0.000470
4612000,0.0324,0.013523,0.002678,0.000431,0.000470
4613000,0.0324,0.013523,0.002678,0.000431,0.000470
4614000,0.0324,0.013523,0.002678,0.000431,0.000470
4615000,0.0324,0.013523,0.002678,0.000431,0.000470
4616000,0.0324,0.013523,0.002678,0.000431,0.000470
4617000,0.0324,0.013523,0.002678,0.000431,0.000588
4618000,0.0324,0.013523,0.002678,0.000431,0.000470
4619000,0.0324,0.013523,0.002678,0.000431,0.000588
4620000,0.0324,0.013523,0.002678,0.000431,0.000353
4621000,0.0324,0.013523,0.002678,0.000431,0.000588
4622000,0.0324,0.013523,0.002678,0.000431,0.000353
4623000,0.0324,0.013523,0.002678,0.000431,0.000588
4624000,0.0324,0.013523,0.002678,0.000431,0.000353
4625000,0.0324,0.013523,0.002678,0.000431,0.000588
4626000,0.0324,0.013523,0.002678,0.000431,0.000353
4627000,0.0324,0.013523,0.002678,0.000431,0.000588
4628000,0.0324,0.013523,0.002678,0.000431,0.000353
4629000,0.0324,0.013523,0.002678,0.000431,0.000588
4630000,0.0324,0.013523,0.002678,0.000431,0.000353
4631000,0.0324,0.013523,0.002678,0.000431,0.000470
4632000,0.0324,0.013523,0.002678,0.000431,0.000588
4633000,0.0324,0.013523,0.002678,0.000431,0.000588
4634000,0.0324,0.013523,0.002678,0.000431,0.000470
4635000,0.0324,0.013523,0.002678,0.000431,0.000705
4636000,0.0324,0.013523,0.002678,0.000431,0.000353
4637000,0.0324,0.013523,0.002678,0.000431,0.000705
4638000,0.0324,0.013523,0.002678,0.000431,0.000470
4639000,0.0324,0.013523,0.002678,0.000431,0.000470
4640000,0.0324,0.013523,0.002678,0.000431,0.000470
4641000,0.0324,0.013523,0.002678,0.000431,0.000470
4642000,0.0324,0.013523,0.002678,0.000431,0.000470
4643000,0.0324,0.013523,0.002678,0.000431,0.000470
4644000,0.0324,0.013523,0.002678,0.000431,0.000470
4645000,0.0324,0.013523,0.002678,0.000431,0.000588
4646000,0.0324,0.013523,0.002678,0.000431,0.000353
4647000,0.0324,0.013523,0.002678,0.000431,0.000588
4648000,0.0324,0.013523,0.002678,0.000431,0.000353
4649000,0.0324,0.013523,0.002678,0.000431,0.000588
4650000,0.0324,0.013523,0.002678,0.000431,0.000353
4651000,0.0324,0.013523,0.002678,0.000431,0.000588
4652000,0.0324,0.013523,0.002678,0.000431,0.000353
4653000,0.0324,0.013523,0.002678,0.000431,0.000588
4654000,0.0324,0.013523,0.002678,0.000431,0.000588
4655000,0.0324,0.013523,0.002678,0.000431,0.000470
4656000,0.0324,0.013523,0.002678,0.000431,0.000470
4657000,0.0324,0.013523,0.002678,0.000431,0.000470
4658000,0.0324,0.013523,0.002678,0.000431,0.000470
4659000,0.0324,0.013523,0.002678,0.000431,0.000470
4660000,0.0324,0.013523,0.002678,0.000431,0.000470
4661000,0.0324,0.013523,0.002678,0.000431,0.000353
4662000,0.0324,0.013523,0.002678,0.000431,0.000588
4663000,0.0324,0.013523,0.002678,0.000431,0.000353
4664000,0.0324,0.013523,0.002678,0.000431,0.000588
4665000,0.0324,0.013523,0.002678,0.000431,0.000353
4666000,0.0324,0.013523,0.002678,0.000431,0.000588
4667000,0.0324,0.013523,0.002678,0.000431,0.000353
4668000,0.0324,0.013523,0.002678,0.000431,0.000588
4669000,0.0324,0.013523,0.002678,0.000431,0.000353
4670000,0.0324,0.013523,0.002678,0.000431,0.000588
4671000,0.0324,0.013523,0.002678,0.000431,0.000353
4672000,0.0324,0.013523,0.002678,0.000431,0.000588
4673000,0.0324,0.013523,0.002678,0.000431,0.000353
4674000,0.0324,0.013523,0.002678,0.000431,0.000705
4675000,0.0324,0.013523,0.002678,0.000431,0.000353
4676000,0.0324,0.013523,0.002678,0.000431,0.000705
4677000,0.0324,0.013523,0.002678,0.000431,0.000470
4678000,0.0324,0.013523,0.002678,0.000431,0.000470
4679000,0.0324,0.013523,0.002678,0.000431,0.000470
4680000,0.0324,0.013523,0.002678,0.000431,0.000470
4681000,0.0324,0.013523,0.002678,0.000431,0.000470
4682000,0.0324,0.013523,0.002678,0.000431,0.000470
4683000,0.0324,0.013523,0.002678,0.000431,0.000470
4684000,0.0324,0.013523,0.002678,0.000431,0.000470
4685000,0.0324,0.013523,0.002678,0.000431,0.000470
4686000,0.0324,0.013523,0.002678,0.000431,0.000588
4687000,0.0324,0.013523,0.002678,0.000431,0.000470
4688000,0.0324,0.013523,0.002678,0.000431,0.000588
4689000,0.0324,0.013523,0.002678,0.000431,0.000235
4690000,0.0324,0.013523,0.002678,0.000431,0.000588
4691000,0.0324,0.013523,0.002678,0.000431,0.000353
4692000,0.0324,0.013523,0.002678,0.000431,0.000705
4693000,0.0324,0.013523,0.002678,0.000431,0.000588
4694000,0.0324,0.013523,0.002678,0.000431,0.000470
4695000,0.0324,0.013523,0.002678,0.000431,0.000588
4696000,0.0324,0.013523,0.002678,0.000431,0.000353
4697000,0.0324,0.013523,0.002678,0.000431,0.000588
4698000,0.0324,0.013523,0.002678,0.000431,0.000470
4699000,0.0324,0.013523,0.002678,0.000431,0.000470
4700000,0.0324,0.013523,0.002678,0.000431,0.000470
4701000,0.0324,0.013523,0.002678,0.000431,0.000470
4702000,0.0324,0.013523,0.002678,0.000431,0.000470
4703000,0.0324,0.013523,0.002678,0.000431,0.000470
4704000,0.0324,0.013523,0.002678,0.000431,0.000470
4705000,0.0324,0.013523,0.002678,0.000431,0.000470
4706000,0.0324,0.013523,0.002678,0.000431,0.000470
4707000,0.0324,0.013523,0.002678,0.000431,0.000470
4708000,0.0324,0.013523,0.002678,0.000431,0.000470
4709000,0.0324,0.013523,0.002678,0.000431,0.000470
4710000,0.0324,0.013523,0.002678,0.000431,0.000470
4711000,0.0324,0.013523,0.002678,0.000431,0.000470
4712000,0.0324,0.013523,0.002678,0.000431,0.000470
4713000,0.0324,0.013523,0.002678,0.000431,0.000353
4714000,0.0324,0.013523,0.002678,0.000431,0.000588
4715000,0.0324,0.013523,0.002678,0.000431,0.000353
4716000,0.0324,0.013523,0.002678,0.000431,0.000705
4717000,0.0324,0.013523,0.002678,0.000431,0.000353
4718000,0.0324,0.013523,0.002678,0.000431,0.000705
4719000,0.0324,0.013523,0.002678,0.000431,0.000588
4720000,0.0324,0.013523,0.002678,0.000431,0.000470
4721000,0.0324,0.013523,0.002678,0.000431,0.000705
4722000,0.0324,0.013523,0.002678,0.000431,0.000470
4723000,0.0324,0.013523,0.002678,0.000431,0.000588
4724000,0.0324,0.013523,0.002678,0.000431,0.000353
4725000,0.0324,0.013523,0.002678,0.000431,0.000588
4726000,0.0324,0.013523,0.002678,0.000431,0.000353
4727000,0.0324,0.013523,0.002678,0.000431,0.000588
4728000,0.0324,0.013523,0.002678,0.000431,0.000353
4729000,0.0324,0.013523,0.002678,0.000431,0.000588
4730000,0.0324,0.013523,0.002678,0.000431,0.000470
4731000,0.0324,0.013523,0.002678,0.000431,0.000470
4732000,0.0324,0.013523,0.002678,0.000431,0.000470
4733000,0.0324,0.013523,0.002678,0.000431,0.000470
4734000,0.0324,0.013523,0.002678,0.000431,0.000470
4735000,0.0324,0.013523,0.002678,0.000431,0.000470
4736000,0.0324,0.013523,0.002678,0.000431,0.000470
4737000,0.0324,0.013523,0.002678,0.000431,0.000470
4738000,0.0324,0.013523,0.002678,0.000431,0.000470
4739000,0.0324,0.013523,0.002678,0.000431,0.000353
4740000,0.0324,0.013523,0.002678,0.000431,0.000588
4741000,0.0324,0.013523,0.002678,0.000431,0.000353
4742000,0.0324,0.013523,0.002678,0.000431,0.000588
4743000,0.0324,0.013523,0.002678,0.000431,0.000470
4744000,0.0324,0.013523,0.002678,0.000431,0.000470
4745000,0.0324,0.013523,0.002678,0.000431,0.000470
4746000,0.0324,0.013523,0.002678,0.000431,0.000470
4747000,0.0324,0.013523,0.002678,0.000431,0.000470
4748000,0.0324,0.013523,0.002678,0.000431,0.000470
4749000,0.0324,0.013523,0.002678,0.000431,0.000353
4750000,0.0324,0.013523,0.002678,0.000431,0.000588
4751000,0.0324,0.013523,0.002678,0.000431,0.000470
4752000,0.0324,0.013523,0.002678,0.000431,0.000588
4753000,0.0324,0.013523,0.002678,0.000431,0.000470
4754000,0.0324,0.013523,0.002678,0.000431,0.000705
4755000,0.0324,0.013523,0.002678,0.000431,0.000353
4756000,0.0324,0.013523,0.002678,0.000431,0.000588
4757000,0.0324,0.013523,0.002678,0.000431,0.000353
4758000,0.0324,0.013523,0.002678,0.000431,0.000823
4759000,0.0324,0.013523,0.002678,0.000431,0.000353
4760000,0.0324,0.013523,0.002678,0.000431,0.000588
4761000,0.0324,0.013523,0.002678,0.000431,0.000353
4762000,0.0324,0.013523,0.002678,0.000431,0.000588
4763000,0.0324,0.013523,0.002678,0.000431,0.000353
4764000,0.0324,0.013523,0.002678,0.000431,0.000588
4765000,0.0324,0.013523,0.002678,0.000431,0.000353
4766000,0.0324,0.013523,0.002678,0.000431,0.000470
4767000,0.0324,0.013523,0.002678,0.000431,0.000470
4768000,0.0324,0.013523,0.002678,0.000431,0.000588
4769000,0.0324,0.013523,0.002678,0.000431,0.000470
4770000,0.0324,0.013523,0.002678,0.000431,0.000705
4771000,0.0324,0.013523,0.002678,0.000431,0.000353
4772000,0.0324,0.013523,0.002678,0.000431,0.000705
4773000,0.0324,0.013523,0.002678,0.000431,0.000588
4774000,0.0324,0.013523,0.002678,0.000431,0.000470
4775000,0.0324,0.013523,0.002678,0.000431,0.000588
4776000,0.0324,0.013523,0.002678,0.000431,0.000353
4777000,0.0324,0.013523,0.002678,0.000431,0.000588
4778000,0.0324,0.013523,0.002678,0.000431,0.000353
4779000,0.0324,0.013523,0.002678,0.000431,0.000588
4780000,0.0324,0.013523,0.002678,0.000431,0.000470
4781000,0.0324,0.013523,0.002678,0.000431,0.000588
4782000,0.0324,0.013523,0.002678,0.000431,0.000470
4783000,0.0324,0.013523,0.002678,0.000431,0.000588
4784000,0.0324,0.013523,0.002678,0.000431,0.000353
4785000,0.0324,0.013523,0.002678,0.000431,0.000470
4786000,0.0324,0.013523,0.002678,0.000431,0.000470
4787000,0.0324,0.013523,0.002678,0.000431,0.000470
4788000,0.0324,0.013523,0.002678,0.000431,0.000470
4789000,0.0324,0.013523,0.002678,0.000431,0.000470
4790000,0.0324,0.013523,0.002678,0.000431,0.000470
4791000,0.0324,0.013523,0.002678,0.000431,0.000353
4792000,0.0324,0.013523,0.002678,0.000431,0.000588
4793000,0.0324,0.013523,0.002678,0.000431,0.000353
4794000,0.0324,0.013523,0.002678,0.000431,0.000588
4795000,0.0324,0.013523,0.002678,0.000431,0.000353
4796000,0.0324,0.013523,0.002678,0.000431,0.000588
4797000,0.0324,0.013523,0.002678,0.000431,0.000353
4798000,0.0324,0.013523,0.002678,0.000431,0.000705
4799000,0.0324,0.013523,0.002678,0.000431,0.000470
4800000,0.0324,0.013523,0.002678,0.000431,0.000588
4801000,0.0324,0.013523,0.002678,0.000431,0.000353
4802000,0.0324,0.013523,0.002678,0.000431,0.000705
4803000,0.0324,0.013523,0.002678,0.000431,0.000470
4804000,0.0324,0.013523,0.002678,0.000431,0.000470
4805000,0.0324,0.013523,0.002678,0.000431,0.000470
4806000,0.0324,0.013523,0.002678,0.000431,0.000470
4807000,0.0324,0.013523,0.002678,0.000431,0.000470
4808000,0.0324,0.013523,0.002678,0.000431,0.000470
4809000,0.0324,0.013523,0.002678,0.000431,0.000470
4810000,0.0324,0.013523,0.002678,0.000431,0.000470
4811000,0.0324,0.013523,0.002678,0.000431,0.000470
4812000,0.0324,0.013523,0.002678,0.000431,0.000588
4813000,0.0324,0.013523,0.002678,0.000431,0.000353
4814000,0.0324,0.013523,0.002678,0.000431,0.000588
4815000,0.0324,0.013523,0.002678,0.000431,0.000353
4816000,0.0324,0.013523,0.002678,0.000431,0.000588
4817000,0.0324,0.013523,0.002678,0.000431,0.000353
4818000,0.0324,0.013523,0.002678,0.000431,0.000470
4819000,0.0324,0.013523,0.002678,0.000431,0.000470
4820000,0.0324,0.013523,0.002678,0.000431,0.000470
4821000,0.0324,0.013523,0.002678,0.000431,0.000470
4822000,0.0324,0.013523,0.002678,0.000431,0.000588
4823000,0.0324,0.013523,0.002678,0.000431,0.000588
4824000,0.0324,0.013523,0.002678,0.000431,0.000470
4825000,0.0324,0.013523,0.002678,0.000431,0.000470
4826000,0.0324,0.013523,0.002678,0.000431,0.000470
4827000,0.0324,0.013523,0.002678,0.000431,0.000353
4828000,0.0324,0.013523,0.002678,0.000431,0.000588
4829000,0.0324,0.013523,0.002678,0.000431,0.000353
4830000,0.0324,0.013523,0.002678,0.000431,0.000588
4831000,0.0324,0.013523,0.002678,0.000431,0.000353
4832000,0.0324,0.013523,0.002678,0.000431,0.000588
4833000,0.0324,0.013523,0.002678,0.000431,0.000470
4834000,0.0324,0.013523,0.002678,0.000431,0.000470
4835000,0.0324,0.013523,0.002678,0.000431,0.000470
4836000,0.0324,0.013523,0.002678,0.000431,0.000470
4837000,0.0324,0.013523,0.002678,0.000431,0.000470
4838000,0.0324,0.013523,0.002678,0.000431,0.000588
4839000,0.0324,0.013523,0.002678,0.000431,0.000470
4840000,0.0324,0.013523,0.002678,0.000431,0.000588
4841000,0.0324,0.013523,0.002678,0.000431,0.000353
4842000,0.0324,0.013523,0.002678,0.000431,0.000588
4843000,0.0324,0.013523,0.002678,0.000431,0.000353
4844000,0.0324,0.013523,0.002678,0.000431,0.000470
4845000,0.0324,0.013523,0.002678,0.000431,0.000470
4846000,0.0324,0.013523,0.002678,0.000431,0.000470
4847000,0.0324,0.013523,0.002678,0.000431,0.000470
4848000,0.0324,0.013523,0.002678,0.000431,0.000353
4849000,0.0324,0.013523,0.002678,0.000431,0.000588
4850000,0.0324,0.013523,0.002678,0.000431,0.000353
4851000,0.0324,0.013523,0.002678,0.000431,0.000588
4852000,0.0324,0.013523,0.002678,0.000431,0.000353
4853000,0.0324,0.013523,0.002678,0.000431,0.000705
4854000,0.0324,0.013523,0.002678,0.000431,0.000588
4855000,0.0324,0.013523,0.002678,0.000431,0.000470
4856000,0.0324,0.013523,0.002678,0.000431,0.000588
4857000,0.0324,0.013523,0.002678,0.000431,0.000470
4858000,0.0324,0.013523,0.002678,0.000431,0.000470
4859000,0.0324,0.013523,0.002678,0.000431,0.000470
4860000,0.0324,0.013523,0.002678,0.000431,0.000470
4861000,0.0324,0.013523,0.002678,0.000431,0.000470
4862000,0.0324,0.013523,0.002678,0.000431,0.000470
4863000,0.0324,0.013523,0.002678,0.000431,0.000470
4864000,0.0324,0.013523,0.002678,0.000431,0.000588
4865000,0.0324,0.013523,0.002678,0.000431,0.000470
4866000,0.0324,0.013523,0.002678,0.000431,0.000705
4867000,0.0324,0.013523,0.002678,0.000431,0.000470
4868000,0.0324,0.013523,0.002678,0.000431,0.000588
4869000,0.0324,0.013523,0.002678,0.000431,0.000470
4870000,0.0324,0.013523,0.002678,0.000431,0.000470
4871000,0.0324,0.013523,0.002678,0.000431,0.000470
4872000,0.0324,0.013523,0.002678,0.000431,0.000470
4873000,0.0324,0.013523,0.002678,0.000431,0.000470
4874000,0.0324,0.013523,0.002678,0.000431,0.000353
4875000,0.0324,0.013523,0.002678,0.000431,0.000588
4876000,0.0324,0.013523,0.002678,0.000431,0.000353
4877000,0.0324,0.013523,0.002678,0.000431,0.000705
4878000,0.0324,0.013523,0.002678,0.000431,0.000353
4879000,0.0324,0.013523,0.002678,0.000431,0.000705
4880000,0.0324,0.013523,0.002678,0.000431,0.000588
4881000,0.0324,0.013523,0.002678,0.000431,0.000470
4882000,0.0324,0.013523,0.002678,0.000431,0.000823
4883000,0.0324,0.013523,0.002678,0.000431,0.000353
4884000,0.0324,0.013523,0.002678,0.000431,0.000705
4885000,0.0324,0.013523,0.002678,0.000431,0.000353
4886000,0.0324,0.013523,0.002678,0.000431,0.000705
4887000,0.0324,0.013523,0.002678,0.000431,0.000588
4888000,0.0324,0.013523,0.002678,0.000431,0.000470
4889000,0.0324,0.013523,0.002678,0.000431,0.000470
4890000,0.0324,0.013523,0.002678,0.000431,0.000470
4891000,0.0324,0.013523,0.002678,0.000431,0.000588
4892000,0.0324,0.013523,0.002678,0.000431,0.000353
4893000,0.0324,0.013523,0.002678,0.000431,0.000588
4894000,0.0324,0.013523,0.002678,0.000431,0.000470
4895000,0.0324,0.013523,0.002678,0.000431,0.000470
4896000,0.0324,0.013523,0.002678,0.000431,0.000470
4897000,0.0324,0.013523,0.002678,0.000431,0.000470
4898000,0.0324,0.013523,0.002678,0.000431,0.000470
4899000,0.0324,0.013523,0.002678,0.000431,0.000470
4900000,0.0324,0.013523,0.002678,0.000431,0.000470
4901000,0.0324,0.013523,0.002678,0.000431,0.000470
4902000,0.0324,0.013523,0.002678,0.000431,0.000470
4903000,0.0324,0.013523,0.002678,0.000431,0.000470
4904000,0.0324,0.013523,0.002678,0.000431,0.000470
4905000,0.0324,0.013523,0.002678,0.000431,0.000588
4906000,0.0324,0.013523,0.002678,0.000431,0.000470
4907000,0.0324,0.013523,0.002678,0.000431,0.000588
4908000,0.0324,0.013523,0.002678,0.000431,0.000353
4909000,0.0324,0.013523,0.002678,0.000431,0.000588
4910000,0.0324,0.013523,0.002678,0.000431,0.000470
4911000,0.0324,0.013523,0.002678,0.000431,0.000470
4912000,0.0324,0.013523,0.002678,0.000431,0.000470
4913000,0.0324,0.013523,0.002678,0.000431,0.000470
4914000,0.0324,0.013523,0.002678,0.000431,0.000470
4915000,0.0324,0.013523,0.002678,0.000431,0.000470
4916000,0.0324,0.013523,0.002678,0.000431,0.000705
4917000,0.0324,0.013523,0.002678,0.000431,0.000470
4918000,0.0324,0.013523,0.002678,0.000431,0.000705
4919000,0.0324,0.013523,0.002678,0.000431,0.000353
4920000,0.0324,0.013523,0.002678,0.000431,0.000588
4921000,0.0324,0.013523,0.002678,0.000431,0.000353
4922000,0.0324,0.013523,0.002678,0.000431,0.000705
4923000,0.0324,0.013523,0.002678,0.000431,0.000353
4924000,0.0324,0.013523,0.002678,0.000431,0.000705
4925000,0.0324,0.013523,0.002678,0.000431,0.000470
4926000,0.0324,0.013523,0.002678,0.000431,0.000470
4927000,0.0324,0.013523,0.002678,0.000431,0.000470
4928000,0.0324,0.013523,0.002678,0.000431,0.000588
4929000,0.0324,0.013523,0.002678,0.000431,0.000353
4930000,0.0324,0.013523,0.002678,0.000431,0.000470
4931000,0.0324,0.013523,0.002678,0.000431,0.000470
4932000,0.0324,0.013523,0.002678,0.000431,0.000588
4933000,0.0324,0.013523,0.002678,0.000431,0.000353
4934000,0.0324,0.013523,0.002678,0.000431,0.000705
4935000,0.0324,0.013523,0.002678,0.000431,0.000470
4936000,0.0324,0.013523,0.002678,0.000431,0.000470
4937000,0.0324,0.013523,0.002678,0.000431,0.000470
4938000,0.0324,0.013523,0.002678,0.000431,0.000470
4939000,0.0324,0.013523,0.002678,0.000431,0.000470
4940000,0.0324,0.013523,0.002678,0.000431,0.000470
4941000,0.0324,0.013523,0.002678,0.000431,0.000470
4942000,0.0324,0.013523,0.002678,0.000431,0.000470
4943000,0.0324,0.013523,0.002678,0.000431,0.000470
4944000,0.0324,0.013523,0.002678,0.000431,0.000470
4945000,0.0324,0.013523,0.002678,0.000431,0.000353
4946000,0.0324,0.013523,0.002678,0.000431,0.000588
4947000,0.0324,0.013523,0.002678,0.000431,0.000353
4948000,0.0324,0.013523,0.002678,0.000431,0.000588
4949000,0.0324,0.013523,0.002678,0.000431,0.000353
4950000,0.0324,0.013523,0.002678,0.000431,0.000588
4951000,0.0324,0.013523,0.002678,0.000431,0.000353
4952000,0.0324,0.013523,0.002678,0.000431,0.000588
4953000,0.0324,0.013523,0.002678,0.000431,0.000353
4954000,0.0324,0.013523,0.002678,0.000431,0.000588
4955000,0.0324,0.013523,0.002678,0.000431,0.000353
4956000,0.0324,0.013523,0.002678,0.000431,0.000588
4957000,0.0324,0.013523,0.002678,0.000431,0.000353
4958000,0.0324,0.013523,0.002678,0.000431,0.000588
4959000,0.0324,0.013523,0.002678,0.000431,0.000353
4960000,0.0324,0.013523,0.002678,0.000431,0.000588
4961000,0.0324,0.013523,0.002678,0.000431,0.000470
4962000,0.0324,0.013523,0.002678,0.000431,0.000470
4963000,0.0324,0.013523,0.002678,0.000431,0.000470
4964000,0.0324,0.013523,0.002678,0.000431,0.000470
4965000,0.0324,0.013523,0.002678,0.000431,0.000353
4966000,0.0324,0.013523,0.002678,0.000431,0.000588
4967000,0.0324,0.013523,0.002678,0.000431,0.000353
4968000,0.0324,0.013523,0.002678,0.000431,0.000588
4969000,0.0324,0.013523,0.002678,0.000431,0.000353
4970000,0.0324,0.013523,0.002678,0.000431,0.000588
4971000,0.0324,0.013523,0.002678,0.000431,0.000353
4972000,0.0324,0.013523,0.002678,0.000431,0.000588
4973000,0.0324,0.013523,0.002678,0.000431,0.000353
4974000,0.0324,0.013523,0.002678,0.000431,0.000470
4975000,0.0324,0.013523,0.002678,0.000431,0.000705
4976000,0.0324,0.013523,0.002678,0.000431,0.000470
4977000,0.0324,0.013523,0.002678,0.000431,0.000470
4978000,0.0324,0.013523,0.002678,0.000431,0.000353
4979000,0.0324,0.013523,0.002678,0.000431,0.000588
4980000,0.0324,0.013523,0.002678,0.000431,0.000353
4981000,0.0324,0.013523,0.002678,0.000431,0.000470
4982000,0.0324,0.013523,0.002678,0.000431,0.000470
4983000,0.0324,0.013523,0.002678,0.000431,0.000470
4984000,0.0324,0.013523,0.002678,0.000431,0.000470
4985000,0.0324,0.013523,0.002678,0.000431,0.000588
4986000,0.0324,0.013523,0.002678,0.000431,0.000353
4987000,0.0324,0.013523,0.002678,0.000431,0.000588
4988000,0.0324,0.013523,0.002678,0.000431,0.000353
4989000,0.0324,0.013523,0.002678,0.000431,0.000470
4990000,0.0324,0.013523,0.002678,0.000431,0.000470
4991000,0.0324,0.013523,0.002678,0.000431,0.000470
4992000,0.0324,0.013523,0.002678,0.000431,0.000470
4993000,0.0324,0.013523,0.002678,0.000431,0.000470
4994000,0.0324,0.013523,0.002678,0.000431,0.000470
4995000,0.0324,0.013523,0.002678,0.000431,0.000470
4996000,0.0324,0.013523,0.002678,0.000431,0.000470
4997000,0.0324,0.013523,0.002678,0.000431,0.000470
4998000,0.0324,0.013523,0.002678,0.000431,0.000470
4999000,0.0324,0.013523,0.002678,0.000431,0.000470
