Cycle,Area(mm^2),PeakDynamic(W),SubthresholdLeakage(W),GateLeakage(W),RunTimeDynamic(W)
3000000,0.0324,0.013523,0.002678,0.000431,0.000705
3001000,0.0324,0.013523,0.002678,0.000431,0.000588
3002000,0.0324,0.013523,0.002678,0.000431,0.000470
3003000,0.0324,0.013523,0.002678,0.000431,0.000588
3004000,0.0324,0.013523,0.002678,0.000431,0.000353
3005000,0.0324,0.013523,0.002678,0.000431,0.000470
3006000,0.0324,0.013523,0.002678,0.000431,0.000470
3007000,0.0324,0.013523,0.002678,0.000431,0.000470
3008000,0.0324,0.013523,0.002678,0.000431,0.000470
3009000,0.0324,0.013523,0.002678,0.000431,0.000353
3010000,0.0324,0.013523,0.002678,0.000431,0.000588
3011000,0.0324,0.013523,0.002678,0.000431,0.000353
3012000,0.0324,0.013523,0.002678,0.000431,0.000705
3013000,0.0324,0.013523,0.002678,0.000431,0.000470
3014000,0.0324,0.013523,0.002678,0.000431,0.000588
3015000,0.0324,0.013523,0.002678,0.000431,0.000353
3016000,0.0324,0.013523,0.002678,0.000431,0.000588
3017000,0.0324,0.013523,0.002678,0.000431,0.000353
3018000,0.0324,0.013523,0.002678,0.000431,0.000705
3019000,0.0324,0.013523,0.002678,0.000431,0.000588
3020000,0.0324,0.013523,0.002678,0.000431,0.000470
3021000,0.0324,0.013523,0.002678,0.000431,0.000705
3022000,0.0324,0.013523,0.002678,0.000431,0.000235
3023000,0.0324,0.013523,0.002678,0.000431,0.000705
3024000,0.0324,0.013523,0.002678,0.000431,0.000470
3025000,0.0324,0.013523,0.002678,0.000431,0.000588
3026000,0.0324,0.013523,0.002678,0.000431,0.000353
3027000,0.0324,0.013523,0.002678,0.000431,0.000588
3028000,0.0324,0.013523,0.002678,0.000431,0.000353
3029000,0.0324,0.013523,0.002678,0.000431,0.000588
3030000,0.0324,0.013523,0.002678,0.000431,0.000353
3031000,0.0324,0.013523,0.002678,0.000431,0.000705
3032000,0.0324,0.013523,0.002678,0.000431,0.000353
3033000,0.0324,0.013523,0.002678,0.000431,0.000705
3034000,0.0324,0.013523,0.002678,0.000431,0.000588
3035000,0.0324,0.013523,0.002678,0.000431,0.000470
3036000,0.0324,0.013523,0.002678,0.000431,0.000705
3037000,0.0324,0.013523,0.002678,0.000431,0.000235
3038000,0.0324,0.013523,0.002678,0.000431,0.000705
3039000,0.0324,0.013523,0.002678,0.000431,0.000353
3040000,0.0324,0.013523,0.002678,0.000431,0.000705
3041000,0.0324,0.013523,0.002678,0.000431,0.000588
3042000,0.0324,0.013523,0.002678,0.000431,0.000470
3043000,0.0324,0.013523,0.002678,0.000431,0.000588
3044000,0.0324,0.013523,0.002678,0.000431,0.000470
3045000,0.0324,0.013523,0.002678,0.000431,0.000470
3046000,0.0324,0.013523,0.002678,0.000431,0.000353
3047000,0.0324,0.013523,0.002678,0.000431,0.000588
3048000,0.0324,0.013523,0.002678,0.000431,0.000353
3049000,0.0324,0.013523,0.002678,0.000431,0.000705
3050000,0.0324,0.013523,0.002678,0.000431,0.000470
3051000,0.0324,0.013523,0.002678,0.000431,0.000588
3052000,0.0324,0.013523,0.002678,0.000431,0.000353
3053000,0.0324,0.013523,0.002678,0.000431,0.000470
3054000,0.0324,0.013523,0.002678,0.000431,0.000470
3055000,0.0324,0.013523,0.002678,0.000431,0.000588
3056000,0.0324,0.013523,0.002678,0.000431,0.000705
3057000,0.0324,0.013523,0.002678,0.000431,0.000353
3058000,0.0324,0.013523,0.002678,0.000431,0.000588
3059000,0.0324,0.013523,0.002678,0.000431,0.000353
3060000,0.0324,0.013523,0.002678,0.000431,0.000588
3061000,0.0324,0.013523,0.002678,0.000431,0.000353
3062000,0.0324,0.013523,0.002678,0.000431,0.000588
3063000,0.0324,0.013523,0.002678,0.000431,0.000353
3064000,0.0324,0.013523,0.002678,0.000431,0.000588
3065000,0.0324,0.013523,0.002678,0.000431,0.000470
3066000,0.0324,0.013523,0.002678,0.000431,0.000470
3067000,0.0324,0.013523,0.002678,0.000431,0.000470
3068000,0.0324,0.013523,0.002678,0.000431,0.000470
3069000,0.0324,0.013523,0.002678,0.000431,0.000470
3070000,0.0324,0.013523,0.002678,0.000431,0.000588
3071000,0.0324,0.013523,0.002678,0.000431,0.000470
3072000,0.0324,0.013523,0.002678,0.000431,0.000705
3073000,0.0324,0.013523,0.002678,0.000431,0.000353
3074000,0.0324,0.013523,0.002678,0.000431,0.000588
3075000,0.0324,0.013523,0.002678,0.000431,0.000353
3076000,0.0324,0.013523,0.002678,0.000431,0.000588
3077000,0.0324,0.013523,0.002678,0.000431,0.000353
3078000,0.0324,0.013523,0.002678,0.000431,0.000588
3079000,0.0324,0.013523,0.002678,0.000431,0.000353
3080000,0.0324,0.013523,0.002678,0.000431,0.000588
3081000,0.0324,0.013523,0.002678,0.000431,0.000353
3082000,0.0324,0.013523,0.002678,0.000431,0.000588
3083000,0.0324,0.013523,0.002678,0.000431,0.000353
3084000,0.0324,0.013523,0.002678,0.000431,0.000588
3085000,0.0324,0.013523,0.002678,0.000431,0.000353
3086000,0.0324,0.013523,0.002678,0.000431,0.000588
3087000,0.0324,0.013523,0.002678,0.000431,0.000470
3088000,0.0324,0.013523,0.002678,0.000431,0.000705
3089000,0.0324,0.013523,0.002678,0.000431,0.000353
3090000,0.0324,0.013523,0.002678,0.000431,0.000588
3091000,0.0324,0.013523,0.002678,0.000431,0.000353
3092000,0.0324,0.013523,0.002678,0.000431,0.000588
3093000,0.0324,0.013523,0.002678,0.000431,0.000353
3094000,0.0324,0.013523,0.002678,0.000431,0.000588
3095000,0.0324,0.013523,0.002678,0.000431,0.000353
3096000,0.0324,0.013523,0.002678,0.000431,0.000588
3097000,0.0324,0.013523,0.002678,0.000431,0.000353
3098000,0.0324,0.013523,0.002678,0.000431,0.000705
3099000,0.0324,0.013523,0.002678,0.000431,0.000353
3100000,0.0324,0.013523,0.002678,0.000431,0.000588
3101000,0.0324,0.013523,0.002678,0.000431,0.000353
3102000,0.0324,0.013523,0.002678,0.000431,0.000588
3103000,0.0324,0.013523,0.002678,0.000431,0.000235
3104000,0.0324,0.013523,0.002678,0.000431,0.000588
3105000,0.0324,0.013523,0.002678,0.000431,0.000353
3106000,0.0324,0.013523,0.002678,0.000431,0.000823
3107000,0.0324,0.013523,0.002678,0.000431,0.000353
3108000,0.0324,0.013523,0.002678,0.000431,0.000588
3109000,0.0324,0.013523,0.002678,0.000431,0.000353
3110000,0.0324,0.013523,0.002678,0.000431,0.000588
3111000,0.0324,0.013523,0.002678,0.000431,0.000353
3112000,0.0324,0.013523,0.002678,0.000431,0.000470
3113000,0.0324,0.013523,0.002678,0.000431,0.000470
3114000,0.0324,0.013523,0.002678,0.000431,0.000470
3115000,0.0324,0.013523,0.002678,0.000431,0.000470
3116000,0.0324,0.013523,0.002678,0.000431,0.000470
3117000,0.0324,0.013523,0.002678,0.000431,0.000588
3118000,0.0324,0.013523,0.002678,0.000431,0.000353
3119000,0.0324,0.013523,0.002678,0.000431,0.000705
3120000,0.0324,0.013523,0.002678,0.000431,0.000470
3121000,0.0324,0.013523,0.002678,0.000431,0.000470
3122000,0.0324,0.013523,0.002678,0.000431,0.000470
3123000,0.0324,0.013523,0.002678,0.000431,0.000470
3124000,0.0324,0.013523,0.002678,0.000431,0.000470
3125000,0.0324,0.013523,0.002678,0.000431,0.000470
3126000,0.0324,0.013523,0.002678,0.000431,0.000470
3127000,0.0324,0.013523,0.002678,0.000431,0.000470
3128000,0.0324,0.013523,0.002678,0.000431,0.000470
3129000,0.0324,0.013523,0.002678,0.000431,0.000588
3130000,0.0324,0.013523,0.002678,0.000431,0.000353
3131000,0.0324,0.013523,0.002678,0.000431,0.000588
3132000,0.0324,0.013523,0.002678,0.000431,0.000353
3133000,0.0324,0.013523,0.002678,0.000431,0.000588
3134000,0.0324,0.013523,0.002678,0.000431,0.000353
3135000,0.0324,0.013523,0.002678,0.000431,0.000705
3136000,0.0324,0.013523,0.002678,0.000431,0.000353
3137000,0.0324,0.013523,0.002678,0.000431,0.000588
3138000,0.0324,0.013523,0.002678,0.000431,0.000588
3139000,0.0324,0.013523,0.002678,0.000431,0.000470
3140000,0.0324,0.013523,0.002678,0.000431,0.000705
3141000,0.0324,0.013523,0.002678,0.000431,0.000353
3142000,0.0324,0.013523,0.002678,0.000431,0.000705
3143000,0.0324,0.013523,0.002678,0.000431,0.000470
3144000,0.0324,0.013523,0.002678,0.000431,0.000705
3145000,0.0324,0.013523,0.002678,0.000431,0.000588
3146000,0.0324,0.013523,0.002678,0.000431,0.000470
3147000,0.0324,0.013523,0.002678,0.000431,0.000705
3148000,0.0324,0.013523,0.002678,0.000431,0.000235
3149000,0.0324,0.013523,0.002678,0.000431,0.000705
3150000,0.0324,0.013523,0.002678,0.000431,0.000353
3151000,0.0324,0.013523,0.002678,0.000431,0.000705
3152000,0.0324,0.013523,0.002678,0.000431,0.000470
3153000,0.0324,0.013523,0.002678,0.000431,0.000470
3154000,0.0324,0.013523,0.002678,0.000431,0.000470
3155000,0.0324,0.013523,0.002678,0.000431,0.000470
3156000,0.0324,0.013523,0.002678,0.000431,0.000470
3157000,0.0324,0.013523,0.002678,0.000431,0.000588
3158000,0.0324,0.013523,0.002678,0.000431,0.000353
3159000,0.0324,0.013523,0.002678,0.000431,0.000588
3160000,0.0324,0.013523,0.002678,0.000431,0.000353
3161000,0.0324,0.013523,0.002678,0.000431,0.000705
3162000,0.0324,0.013523,0.002678,0.000431,0.000470
3163000,0.0324,0.013523,0.002678,0.000431,0.000470
3164000,0.0324,0.013523,0.002678,0.000431,0.000470
3165000,0.0324,0.013523,0.002678,0.000431,0.000470
3166000,0.0324,0.013523,0.002678,0.000431,0.000353
3167000,0.0324,0.013523,0.002678,0.000431,0.000588
3168000,0.0324,0.013523,0.002678,0.000431,0.000353
3169000,0.0324,0.013523,0.002678,0.000431,0.000705
3170000,0.0324,0.013523,0.002678,0.000431,0.000353
3171000,0.0324,0.013523,0.002678,0.000431,0.000588
3172000,0.0324,0.013523,0.002678,0.000431,0.000353
3173000,0.0324,0.013523,0.002678,0.000431,0.000588
3174000,0.0324,0.013523,0.002678,0.000431,0.000353
3175000,0.0324,0.013523,0.002678,0.000431,0.000588
3176000,0.0324,0.013523,0.002678,0.000431,0.000353
3177000,0.0324,0.013523,0.002678,0.000431,0.000588
3178000,0.0324,0.013523,0.002678,0.000431,0.000353
3179000,0.0324,0.013523,0.002678,0.000431,0.000588
3180000,0.0324,0.013523,0.002678,0.000431,0.000353
3181000,0.0324,0.013523,0.002678,0.000431,0.000588
3182000,0.0324,0.013523,0.002678,0.000431,0.000353
3183000,0.0324,0.013523,0.002678,0.000431,0.000470
3184000,0.0324,0.013523,0.002678,0.000431,0.000470
3185000,0.0324,0.013523,0.002678,0.000431,0.000470
3186000,0.0324,0.013523,0.002678,0.000431,0.000470
3187000,0.0324,0.013523,0.002678,0.000431,0.000470
3188000,0.0324,0.013523,0.002678,0.000431,0.000470
3189000,0.0324,0.013523,0.002678,0.000431,0.000470
3190000,0.0324,0.013523,0.002678,0.000431,0.000470
3191000,0.0324,0.013523,0.002678,0.000431,0.000470
3192000,0.0324,0.013523,0.002678,0.000431,0.000470
3193000,0.0324,0.013523,0.002678,0.000431,0.000470
3194000,0.0324,0.013523,0.002678,0.000431,0.000470
3195000,0.0324,0.013523,0.002678,0.000431,0.000470
3196000,0.0324,0.013523,0.002678,0.000431,0.000470
3197000,0.0324,0.013523,0.002678,0.000431,0.000470
3198000,0.0324,0.013523,0.002678,0.000431,0.000470
3199000,0.0324,0.013523,0.002678,0.000431,0.000470
3200000,0.0324,0.013523,0.002678,0.000431,0.000470
3201000,0.0324,0.013523,0.002678,0.000431,0.000470
3202000,0.0324,0.013523,0.002678,0.000431,0.000588
3203000,0.0324,0.013523,0.002678,0.000431,0.000353
3204000,0.0324,0.013523,0.002678,0.000431,0.000470
3205000,0.0324,0.013523,0.002678,0.000431,0.000353
3206000,0.0324,0.013523,0.002678,0.000431,0.000588
3207000,0.0324,0.013523,0.002678,0.000431,0.000353
3208000,0.0324,0.013523,0.002678,0.000431,0.000588
3209000,0.0324,0.013523,0.002678,0.000431,0.000470
3210000,0.0324,0.013523,0.002678,0.000431,0.000470
3211000,0.0324,0.013523,0.002678,0.000431,0.000470
3212000,0.0324,0.013523,0.002678,0.000431,0.000588
3213000,0.0324,0.013523,0.002678,0.000431,0.000470
3214000,0.0324,0.013523,0.002678,0.000431,0.000588
3215000,0.0324,0.013523,0.002678,0.000431,0.000353
3216000,0.0324,0.013523,0.002678,0.000431,0.000588
3217000,0.0324,0.013523,0.002678,0.000431,0.000353
3218000,0.0324,0.013523,0.002678,0.000431,0.000588
3219000,0.0324,0.013523,0.002678,0.000431,0.000353
3220000,0.0324,0.013523,0.002678,0.000431,0.000470
3221000,0.0324,0.013523,0.002678,0.000431,0.000470
3222000,0.0324,0.013523,0.002678,0.000431,0.000470
3223000,0.0324,0.013523,0.002678,0.000431,0.000470
3224000,0.0324,0.013523,0.002678,0.000431,0.000470
3225000,0.0324,0.013523,0.002678,0.000431,0.000470
3226000,0.0324,0.013523,0.002678,0.000431,0.000353
3227000,0.0324,0.013523,0.002678,0.000431,0.000588
3228000,0.0324,0.013523,0.002678,0.000431,0.000353
3229000,0.0324,0.013523,0.002678,0.000431,0.000588
3230000,0.0324,0.013523,0.002678,0.000431,0.000353
3231000,0.0324,0.013523,0.002678,0.000431,0.000588
3232000,0.0324,0.013523,0.002678,0.000431,0.000353
3233000,0.0324,0.013523,0.002678,0.000431,0.000705
3234000,0.0324,0.013523,0.002678,0.000431,0.000470
3235000,0.0324,0.013523,0.002678,0.000431,0.000470
3236000,0.0324,0.013523,0.002678,0.000431,0.000470
3237000,0.0324,0.013523,0.002678,0.000431,0.000470
3238000,0.0324,0.013523,0.002678,0.000431,0.000470
3239000,0.0324,0.013523,0.002678,0.000431,0.000470
3240000,0.0324,0.013523,0.002678,0.000431,0.000470
3241000,0.0324,0.013523,0.002678,0.000431,0.000470
3242000,0.0324,0.013523,0.002678,0.000431,0.000470
3243000,0.0324,0.013523,0.002678,0.000431,0.000470
3244000,0.0324,0.013523,0.002678,0.000431,0.000470
3245000,0.0324,0.013523,0.002678,0.000431,0.000470
3246000,0.0324,0.013523,0.002678,0.000431,0.000353
3247000,0.0324,0.013523,0.002678,0.000431,0.000705
3248000,0.0324,0.013523,0.002678,0.000431,0.000353
3249000,0.0324,0.013523,0.002678,0.000431,0.000705
3250000,0.0324,0.013523,0.002678,0.000431,0.000588
3251000,0.0324,0.013523,0.002678,0.000431,0.000470
3252000,0.0324,0.013523,0.002678,0.000431,0.000588
3253000,0.0324,0.013523,0.002678,0.000431,0.000353
3254000,0.0324,0.013523,0.002678,0.000431,0.000588
3255000,0.0324,0.013523,0.002678,0.000431,0.000353
3256000,0.0324,0.013523,0.002678,0.000431,0.000588
3257000,0.0324,0.013523,0.002678,0.000431,0.000353
3258000,0.0324,0.013523,0.002678,0.000431,0.000588
3259000,0.0324,0.013523,0.002678,0.000431,0.000353
3260000,0.0324,0.013523,0.002678,0.000431,0.000588
3261000,0.0324,0.013523,0.002678,0.000431,0.000353
3262000,0.0324,0.013523,0.002678,0.000431,0.000588
3263000,0.0324,0.013523,0.002678,0.000431,0.000353
3264000,0.0324,0.013523,0.002678,0.000431,0.000470
3265000,0.0324,0.013523,0.002678,0.000431,0.000470
3266000,0.0324,0.013523,0.002678,0.000431,0.000470
3267000,0.0324,0.013523,0.002678,0.000431,0.000470
3268000,0.0324,0.013523,0.002678,0.000431,0.000353
3269000,0.0324,0.013523,0.002678,0.000431,0.000705
3270000,0.0324,0.013523,0.002678,0.000431,0.000588
3271000,0.0324,0.013523,0.002678,0.000431,0.000470
3272000,0.0324,0.013523,0.002678,0.000431,0.000705
3273000,0.0324,0.013523,0.002678,0.000431,0.000353
3274000,0.0324,0.013523,0.002678,0.000431,0.000705
3275000,0.0324,0.013523,0.002678,0.000431,0.000470
3276000,0.0324,0.013523,0.002678,0.000431,0.000470
3277000,0.0324,0.013523,0.002678,0.000431,0.000470
3278000,0.0324,0.013523,0.002678,0.000431,0.000470
3279000,0.0324,0.013523,0.002678,0.000431,0.000470
3280000,0.0324,0.013523,0.002678,0.000431,0.000470
3281000,0.0324,0.013523,0.002678,0.000431,0.000470
3282000,0.0324,0.013523,0.002678,0.000431,0.000470
3283000,0.0324,0.013523,0.002678,0.000431,0.000470
3284000,0.0324,0.013523,0.002678,0.000431,0.000470
3285000,0.0324,0.013523,0.002678,0.000431,0.000353
3286000,0.0324,0.013523,0.002678,0.000431,0.000588
3287000,0.0324,0.013523,0.002678,0.000431,0.000353
3288000,0.0324,0.013523,0.002678,0.000431,0.000588
3289000,0.0324,0.013523,0.002678,0.000431,0.000353
3290000,0.0324,0.013523,0.002678,0.000431,0.000705
3291000,0.0324,0.013523,0.002678,0.000431,0.000353
3292000,0.0324,0.013523,0.002678,0.000431,0.000705
3293000,0.0324,0.013523,0.002678,0.000431,0.000470
3294000,0.0324,0.013523,0.002678,0.000431,0.000470
3295000,0.0324,0.013523,0.002678,0.000431,0.000470
3296000,0.0324,0.013523,0.002678,0.000431,0.000470
3297000,0.0324,0.013523,0.002678,0.000431,0.000470
3298000,0.0324,0.013523,0.002678,0.000431,0.000588
3299000,0.0324,0.013523,0.002678,0.000431,0.000353
3300000,0.0324,0.013523,0.002678,0.000431,0.000470
3301000,0.0324,0.013523,0.002678,0.000431,0.000470
3302000,0.0324,0.013523,0.002678,0.000431,0.000588
3303000,0.0324,0.013523,0.002678,0.000431,0.000353
3304000,0.0324,0.013523,0.002678,0.000431,0.000470
3305000,0.0324,0.013523,0.002678,0.000431,0.000353
3306000,0.0324,0.013523,0.002678,0.000431,0.000588
3307000,0.0324,0.013523,0.002678,0.000431,0.000470
3308000,0.0324,0.013523,0.002678,0.000431,0.000470
3309000,0.0324,0.013523,0.002678,0.000431,0.000470
3310000,0.0324,0.013523,0.002678,0.000431,0.000470
3311000,0.0324,0.013523,0.002678,0.000431,0.000470
3312000,0.0324,0.013523,0.002678,0.000431,0.000470
3313000,0.0324,0.013523,0.002678,0.000431,0.000470
3314000,0.0324,0.013523,0.002678,0.000431,0.000470
3315000,0.0324,0.013523,0.002678,0.000431,0.000470
3316000,0.0324,0.013523,0.002678,0.000431,0.000588
3317000,0.0324,0.013523,0.002678,0.000431,0.000470
3318000,0.0324,0.013523,0.002678,0.000431,0.000588
3319000,0.0324,0.013523,0.002678,0.000431,0.000353
3320000,0.0324,0.013523,0.002678,0.000431,0.000588
3321000,0.0324,0.013523,0.002678,0.000431,0.000353
3322000,0.0324,0.013523,0.002678,0.000431,0.000470
3323000,0.0324,0.013523,0.002678,0.000431,0.000470
3324000,0.0324,0.013523,0.002678,0.000431,0.000353
3325000,0.0324,0.013523,0.002678,0.000431,0.000470
3326000,0.0324,0.013523,0.002678,0.000431,0.000470
3327000,0.0324,0.013523,0.002678,0.000431,0.000470
3328000,0.0324,0.013523,0.002678,0.000431,0.000470
3329000,0.0324,0.013523,0.002678,0.000431,0.000470
3330000,0.0324,0.013523,0.002678,0.000431,0.000470
3331000,0.0324,0.013523,0.002678,0.000431,0.000470
3332000,0.0324,0.013523,0.002678,0.000431,0.000470
3333000,0.0324,0.013523,0.002678,0.000431,0.000588
3334000,0.0324,0.013523,0.002678,0.000431,0.000353
3335000,0.0324,0.013523,0.002678,0.000431,0.000705
3336000,0.0324,0.013523,0.002678,0.000431,0.000588
3337000,0.0324,0.013523,0.002678,0.000431,0.000353
3338000,0.0324,0.013523,0.002678,0.000431,0.000588
3339000,0.0324,0.013523,0.002678,0.000431,0.000470
3340000,0.0324,0.013523,0.002678,0.000431,0.000353
3341000,0.0324,0.013523,0.002678,0.000431,0.000588
3342000,0.0324,0.013523,0.002678,0.000431,0.000353
3343000,0.0324,0.013523,0.002678,0.000431,0.000588
3344000,0.0324,0.013523,0.002678,0.000431,0.000353
3345000,0.0324,0.013523,0.002678,0.000431,0.000588
3346000,0.0324,0.013523,0.002678,0.000431,0.000353
3347000,0.0324,0.013523,0.002678,0.000431,0.000588
3348000,0.0324,0.013523,0.002678,0.000431,0.000353
3349000,0.0324,0.013523,0.002678,0.000431,0.000470
3350000,0.0324,0.013523,0.002678,0.000431,0.000470
3351000,0.0324,0.013523,0.002678,0.000431,0.000588
3352000,0.0324,0.013523,0.002678,0.000431,0.000353
3353000,0.0324,0.013523,0.002678,0.000431,0.000705
3354000,0.0324,0.013523,0.002678,0.000431,0.000588
3355000,0.0324,0.013523,0.002678,0.000431,0.000353
3356000,0.0324,0.013523,0.002678,0.000431,0.000588
3357000,0.0324,0.013523,0.002678,0.000431,0.000588
3358000,0.0324,0.013523,0.002678,0.000431,0.000470
3359000,0.0324,0.013523,0.002678,0.000431,0.000470
3360000,0.0324,0.013523,0.002678,0.000431,0.000470
3361000,0.0324,0.013523,0.002678,0.000431,0.000470
3362000,0.0324,0.013523,0.002678,0.000431,0.000470
3363000,0.0324,0.013523,0.002678,0.000431,0.000470
3364000,0.0324,0.013523,0.002678,0.000431,0.000470
3365000,0.0324,0.013523,0.002678,0.000431,0.000588
3366000,0.0324,0.013523,0.002678,0.000431,0.000353
3367000,0.0324,0.013523,0.002678,0.000431,0.000705
3368000,0.0324,0.013523,0.002678,0.000431,0.000588
3369000,0.0324,0.013523,0.002678,0.000431,0.000470
3370000,0.0324,0.013523,0.002678,0.000431,0.000588
3371000,0.0324,0.013523,0.002678,0.000431,0.000353
3372000,0.0324,0.013523,0.002678,0.000431,0.000588
3373000,0.0324,0.013523,0.002678,0.000431,0.000353
3374000,0.0324,0.013523,0.002678,0.000431,0.000470
3375000,0.0324,0.013523,0.002678,0.000431,0.000470
3376000,0.0324,0.013523,0.002678,0.000431,0.000470
3377000,0.0324,0.013523,0.002678,0.000431,0.000588
3378000,0.0324,0.013523,0.002678,0.000431,0.000470
3379000,0.0324,0.013523,0.002678,0.000431,0.000470
3380000,0.0324,0.013523,0.002678,0.000431,0.000470
3381000,0.0324,0.013523,0.002678,0.000431,0.000588
3382000,0.0324,0.013523,0.002678,0.000431,0.000353
3383000,0.0324,0.013523,0.002678,0.000431,0.000588
3384000,0.0324,0.013523,0.002678,0.000431,0.000353
3385000,0.0324,0.013523,0.002678,0.000431,0.000470
3386000,0.0324,0.013523,0.002678,0.000431,0.000470
3387000,0.0324,0.013523,0.002678,0.000431,0.000470
3388000,0.0324,0.013523,0.002678,0.000431,0.000470
3389000,0.0324,0.013523,0.002678,0.000431,0.000470
3390000,0.0324,0.013523,0.002678,0.000431,0.000470
3391000,0.0324,0.013523,0.002678,0.000431,0.000470
3392000,0.0324,0.013523,0.002678,0.000431,0.000470
3393000,0.0324,0.013523,0.002678,0.000431,0.000470
3394000,0.0324,0.013523,0.002678,0.000431,0.000470
3395000,0.0324,0.013523,0.002678,0.000431,0.000470
3396000,0.0324,0.013523,0.002678,0.000431,0.000470
3397000,0.0324,0.013523,0.002678,0.000431,0.000470
3398000,0.0324,0.013523,0.002678,0.000431,0.000470
3399000,0.0324,0.013523,0.002678,0.000431,0.000470
3400000,0.0324,0.013523,0.002678,0.000431,0.000470
3401000,0.0324,0.013523,0.002678,0.000431,0.000588
3402000,0.0324,0.013523,0.002678,0.000431,0.000353
3403000,0.0324,0.013523,0.002678,0.000431,0.000470
3404000,0.0324,0.013523,0.002678,0.000431,0.000353
3405000,0.0324,0.013523,0.002678,0.000431,0.000588
3406000,0.0324,0.013523,0.002678,0.000431,0.000470
3407000,0.0324,0.013523,0.002678,0.000431,0.000470
3408000,0.0324,0.013523,0.002678,0.000431,0.000470
3409000,0.0324,0.013523,0.002678,0.000431,0.000470
3410000,0.0324,0.013523,0.002678,0.000431,0.000470
3411000,0.0324,0.013523,0.002678,0.000431,0.000588
3412000,0.0324,0.013523,0.002678,0.000431,0.000470
3413000,0.0324,0.013523,0.002678,0.000431,0.000705
3414000,0.0324,0.013523,0.002678,0.000431,0.000353
3415000,0.0324,0.013523,0.002678,0.000431,0.000588
3416000,0.0324,0.013523,0.002678,0.000431,0.000353
3417000,0.0324,0.013523,0.002678,0.000431,0.000588
3418000,0.0324,0.013523,0.002678,0.000431,0.000353
3419000,0.0324,0.013523,0.002678,0.000431,0.000588
3420000,0.0324,0.013523,0.002678,0.000431,0.000353
3421000,0.0324,0.013523,0.002678,0.000431,0.000588
3422000,0.0324,0.013523,0.002678,0.000431,0.000353
3423000,0.0324,0.013523,0.002678,0.000431,0.000588
3424000,0.0324,0.013523,0.002678,0.000431,0.000353
3425000,0.0324,0.013523,0.002678,0.000431,0.000588
3426000,0.0324,0.013523,0.002678,0.000431,0.000353
3427000,0.0324,0.013523,0.002678,0.000431,0.000588
3428000,0.0324,0.013523,0.002678,0.000431,0.000353
3429000,0.0324,0.013523,0.002678,0.000431,0.000470
3430000,0.0324,0.013523,0.002678,0.000431,0.000470
3431000,0.0324,0.013523,0.002678,0.000431,0.000470
3432000,0.0324,0.013523,0.002678,0.000431,0.000470
3433000,0.0324,0.013523,0.002678,0.000431,0.000470
3434000,0.0324,0.013523,0.002678,0.000431,0.000470
3435000,0.0324,0.013523,0.002678,0.000431,0.000470
3436000,0.0324,0.013523,0.002678,0.000431,0.000470
3437000,0.0324,0.013523,0.002678,0.000431,0.000588
3438000,0.0324,0.013523,0.002678,0.000431,0.000470
3439000,0.0324,0.013523,0.002678,0.000431,0.000705
3440000,0.0324,0.013523,0.002678,0.000431,0.000353
3441000,0.0324,0.013523,0.002678,0.000431,0.000705
3442000,0.0324,0.013523,0.002678,0.000431,0.000470
3443000,0.0324,0.013523,0.002678,0.000431,0.000470
3444000,0.0324,0.013523,0.002678,0.000431,0.000470
3445000,0.0324,0.013523,0.002678,0.000431,0.000588
3446000,0.0324,0.013523,0.002678,0.000431,0.000353
3447000,0.0324,0.013523,0.002678,0.000431,0.000470
3448000,0.0324,0.013523,0.002678,0.000431,0.000470
3449000,0.0324,0.013523,0.002678,0.000431,0.000470
3450000,0.0324,0.013523,0.002678,0.000431,0.000470
3451000,0.0324,0.013523,0.002678,0.000431,0.000470
3452000,0.0324,0.013523,0.002678,0.000431,0.000470
3453000,0.0324,0.013523,0.002678,0.000431,0.000588
3454000,0.0324,0.013523,0.002678,0.000431,0.000353
3455000,0.0324,0.013523,0.002678,0.000431,0.000470
3456000,0.0324,0.013523,0.002678,0.000431,0.000470
3457000,0.0324,0.013523,0.002678,0.000431,0.000470
3458000,0.0324,0.013523,0.002678,0.000431,0.000470
3459000,0.0324,0.013523,0.002678,0.000431,0.000588
3460000,0.0324,0.013523,0.002678,0.000431,0.000470
3461000,0.0324,0.013523,0.002678,0.000431,0.000588
3462000,0.0324,0.013523,0.002678,0.000431,0.000353
3463000,0.0324,0.013523,0.002678,0.000431,0.000588
3464000,0.0324,0.013523,0.002678,0.000431,0.000353
3465000,0.0324,0.013523,0.002678,0.000431,0.000588
3466000,0.0324,0.013523,0.002678,0.000431,0.000353
3467000,0.0324,0.013523,0.002678,0.000431,0.000588
3468000,0.0324,0.013523,0.002678,0.000431,0.000353
3469000,0.0324,0.013523,0.002678,0.000431,0.000588
3470000,0.0324,0.013523,0.002678,0.000431,0.000353
3471000,0.0324,0.013523,0.002678,0.000431,0.000588
3472000,0.0324,0.013523,0.002678,0.000431,0.000353
3473000,0.0324,0.013523,0.002678,0.000431,0.000588
3474000,0.0324,0.013523,0.002678,0.000431,0.000353
3475000,0.0324,0.013523,0.002678,0.000431,0.000470
3476000,0.0324,0.013523,0.002678,0.000431,0.000470
3477000,0.0324,0.013523,0.002678,0.000431,0.000470
3478000,0.0324,0.013523,0.002678,0.000431,0.000470
3479000,0.0324,0.013523,0.002678,0.000431,0.000353
3480000,0.0324,0.013523,0.002678,0.000431,0.000705
3481000,0.0324,0.013523,0.002678,0.000431,0.000470
3482000,0.0324,0.013523,0.002678,0.000431,0.000588
3483000,0.0324,0.013523,0.002678,0.000431,0.000470
3484000,0.0324,0.013523,0.002678,0.000431,0.000470
3485000,0.0324,0.013523,0.002678,0.000431,0.000470
3486000,0.0324,0.013523,0.002678,0.000431,0.000705
3487000,0.0324,0.013523,0.002678,0.000431,0.000353
3488000,0.0324,0.013523,0.002678,0.000431,0.000588
3489000,0.0324,0.013523,0.002678,0.000431,0.000470
3490000,0.0324,0.013523,0.002678,0.000431,0.000588
3491000,0.0324,0.013523,0.002678,0.000431,0.000235
3492000,0.0324,0.013523,0.002678,0.000431,0.000588
3493000,0.0324,0.013523,0.002678,0.000431,0.000353
3494000,0.0324,0.013523,0.002678,0.000431,0.000588
3495000,0.0324,0.013523,0.002678,0.000431,0.000353
3496000,0.0324,0.013523,0.002678,0.000431,0.000588
3497000,0.0324,0.013523,0.002678,0.000431,0.000353
3498000,0.0324,0.013523,0.002678,0.000431,0.000470
3499000,0.0324,0.013523,0.002678,0.000431,0.000470
3500000,0.0324,0.013523,0.002678,0.000431,0.000470
3501000,0.0324,0.013523,0.002678,0.000431,0.000470
3502000,0.0324,0.013523,0.002678,0.000431,0.000470
3503000,0.0324,0.013523,0.002678,0.000431,0.000470
3504000,0.0324,0.013523,0.002678,0.000431,0.000470
3505000,0.0324,0.013523,0.002678,0.000431,0.000470
3506000,0.0324,0.013523,0.002678,0.000431,0.000470
3507000,0.0324,0.013523,0.002678,0.000431,0.000470
3508000,0.0324,0.013523,0.002678,0.000431,0.000470
3509000,0.0324,0.013523,0.002678,0.000431,0.000588
3510000,0.0324,0.013523,0.002678,0.000431,0.000353
3511000,0.0324,0.013523,0.002678,0.000431,0.000705
3512000,0.0324,0.013523,0.002678,0.000431,0.000470
3513000,0.0324,0.013523,0.002678,0.000431,0.000470
3514000,0.0324,0.013523,0.002678,0.000431,0.000470
3515000,0.0324,0.013523,0.002678,0.000431,0.000470
3516000,0.0324,0.013523,0.002678,0.000431,0.000470
3517000,0.0324,0.013523,0.002678,0.000431,0.000470
3518000,0.0324,0.013523,0.002678,0.000431,0.000353
3519000,0.0324,0.013523,0.002678,0.000431,0.000588
3520000,0.0324,0.013523,0.002678,0.000431,0.000353
3521000,0.0324,0.013523,0.002678,0.000431,0.000823
3522000,0.0324,0.013523,0.002678,0.000431,0.000353
3523000,0.0324,0.013523,0.002678,0.000431,0.000588
3524000,0.0324,0.013523,0.002678,0.000431,0.000353
3525000,0.0324,0.013523,0.002678,0.000431,0.000470
3526000,0.0324,0.013523,0.002678,0.000431,0.000470
3527000,0.0324,0.013523,0.002678,0.000431,0.000588
3528000,0.0324,0.013523,0.002678,0.000431,0.000353
3529000,0.0324,0.013523,0.002678,0.000431,0.000705
3530000,0.0324,0.013523,0.002678,0.000431,0.000470
3531000,0.0324,0.013523,0.002678,0.000431,0.000705
3532000,0.0324,0.013523,0.002678,0.000431,0.000353
3533000,0.0324,0.013523,0.002678,0.000431,0.000705
3534000,0.0324,0.013523,0.002678,0.000431,0.000353
3535000,0.0324,0.013523,0.002678,0.000431,0.000705
3536000,0.0324,0.013523,0.002678,0.000431,0.000470
3537000,0.0324,0.013523,0.002678,0.000431,0.000470
3538000,0.0324,0.013523,0.002678,0.000431,0.000353
3539000,0.0324,0.013523,0.002678,0.000431,0.000588
3540000,0.0324,0.013523,0.002678,0.000431,0.000353
3541000,0.0324,0.013523,0.002678,0.000431,0.000588
3542000,0.0324,0.013523,0.002678,0.000431,0.000353
3543000,0.0324,0.013523,0.002678,0.000431,0.000588
3544000,0.0324,0.013523,0.002678,0.000431,0.000353
3545000,0.0324,0.013523,0.002678,0.000431,0.000588
3546000,0.0324,0.013523,0.002678,0.000431,0.000353
3547000,0.0324,0.013523,0.002678,0.000431,0.000588
3548000,0.0324,0.013523,0.002678,0.000431,0.000353
3549000,0.0324,0.013523,0.002678,0.000431,0.000588
3550000,0.0324,0.013523,0.002678,0.000431,0.000353
3551000,0.0324,0.013523,0.002678,0.000431,0.000588
3552000,0.0324,0.013523,0.002678,0.000431,0.000353
3553000,0.0324,0.013523,0.002678,0.000431,0.000588
3554000,0.0324,0.013523,0.002678,0.000431,0.000353
3555000,0.0324,0.013523,0.002678,0.000431,0.000470
3556000,0.0324,0.013523,0.002678,0.000431,0.000470
3557000,0.0324,0.013523,0.002678,0.000431,0.000588
3558000,0.0324,0.013523,0.002678,0.000431,0.000470
3559000,0.0324,0.013523,0.002678,0.000431,0.000588
3560000,0.0324,0.013523,0.002678,0.000431,0.000588
3561000,0.0324,0.013523,0.002678,0.000431,0.000705
3562000,0.0324,0.013523,0.002678,0.000431,0.000353
3563000,0.0324,0.013523,0.002678,0.000431,0.000588
3564000,0.0324,0.013523,0.002678,0.000431,0.000353
3565000,0.0324,0.013523,0.002678,0.000431,0.000588
3566000,0.0324,0.013523,0.002678,0.000431,0.000353
3567000,0.0324,0.013523,0.002678,0.000431,0.000588
3568000,0.0324,0.013523,0.002678,0.000431,0.000353
3569000,0.0324,0.013523,0.002678,0.000431,0.000705
3570000,0.0324,0.013523,0.002678,0.000431,0.000470
3571000,0.0324,0.013523,0.002678,0.000431,0.000470
3572000,0.0324,0.013523,0.002678,0.000431,0.000470
3573000,0.0324,0.013523,0.002678,0.000431,0.000470
3574000,0.0324,0.013523,0.002678,0.000431,0.000470
3575000,0.0324,0.013523,0.002678,0.000431,0.000470
3576000,0.0324,0.013523,0.002678,0.000431,0.000470
3577000,0.0324,0.013523,0.002678,0.000431,0.000705
3578000,0.0324,0.013523,0.002678,0.000431,0.000470
3579000,0.0324,0.013523,0.002678,0.000431,0.000470
3580000,0.0324,0.013523,0.002678,0.000431,0.000470
3581000,0.0324,0.013523,0.002678,0.000431,0.000470
3582000,0.0324,0.013523,0.002678,0.000431,0.000470
3583000,0.0324,0.013523,0.002678,0.000431,0.000470
3584000,0.0324,0.013523,0.002678,0.000431,0.000470
3585000,0.0324,0.013523,0.002678,0.000431,0.000470
3586000,0.0324,0.013523,0.002678,0.000431,0.000353
3587000,0.0324,0.013523,0.002678,0.000431,0.000588
3588000,0.0324,0.013523,0.002678,0.000431,0.000353
3589000,0.0324,0.013523,0.002678,0.000431,0.000470
3590000,0.0324,0.013523,0.002678,0.000431,0.000353
3591000,0.0324,0.013523,0.002678,0.000431,0.000588
3592000,0.0324,0.013523,0.002678,0.000431,0.000353
3593000,0.0324,0.013523,0.002678,0.000431,0.000705
3594000,0.0324,0.013523,0.002678,0.000431,0.000588
3595000,0.0324,0.013523,0.002678,0.000431,0.000470
3596000,0.0324,0.013523,0.002678,0.000431,0.000588
3597000,0.0324,0.013523,0.002678,0.000431,0.000470
3598000,0.0324,0.013523,0.002678,0.000431,0.000588
3599000,0.0324,0.013523,0.002678,0.000431,0.000470
3600000,0.0324,0.013523,0.002678,0.000431,0.000588
3601000,0.0324,0.013523,0.002678,0.000431,0.000353
3602000,0.0324,0.013523,0.002678,0.000431,0.000588
3603000,0.0324,0.013523,0.002678,0.000431,0.000353
3604000,0.0324,0.013523,0.002678,0.000431,0.000588
3605000,0.0324,0.013523,0.002678,0.000431,0.000353
3606000,0.0324,0.013523,0.002678,0.000431,0.000588
3607000,0.0324,0.013523,0.002678,0.000431,0.000353
3608000,0.0324,0.013523,0.002678,0.000431,0.000470
3609000,0.0324,0.013523,0.002678,0.000431,0.000588
3610000,0.0324,0.013523,0.002678,0.000431,0.000588
3611000,0.0324,0.013523,0.002678,0.000431,0.000470
3612000,0.0324,0.013523,0.002678,0.000431,0.000705
3613000,0.0324,0.013523,0.002678,0.000431,0.000353
3614000,0.0324,0.013523,0.002678,0.000431,0.000823
3615000,0.0324,0.013523,0.002678,0.000431,0.000353
3616000,0.0324,0.013523,0.002678,0.000431,0.000588
3617000,0.0324,0.013523,0.002678,0.000431,0.000353
3618000,0.0324,0.013523,0.002678,0.000431,0.000588
3619000,0.0324,0.013523,0.002678,0.000431,0.000353
3620000,0.0324,0.013523,0.002678,0.000431,0.000588
3621000,0.0324,0.013523,0.002678,0.000431,0.000353
3622000,0.0324,0.013523,0.002678,0.000431,0.000588
3623000,0.0324,0.013523,0.002678,0.000431,0.000353
3624000,0.0324,0.013523,0.002678,0.000431,0.000588
3625000,0.0324,0.013523,0.002678,0.000431,0.000353
3626000,0.0324,0.013523,0.002678,0.000431,0.000588
3627000,0.0324,0.013523,0.002678,0.000431,0.000353
3628000,0.0324,0.013523,0.002678,0.000431,0.000588
3629000,0.0324,0.013523,0.002678,0.000431,0.000353
3630000,0.0324,0.013523,0.002678,0.000431,0.000823
3631000,0.0324,0.013523,0.002678,0.000431,0.000353
3632000,0.0324,0.013523,0.002678,0.000431,0.000588
3633000,0.0324,0.013523,0.002678,0.000431,0.000353
3634000,0.0324,0.013523,0.002678,0.000431,0.000588
3635000,0.0324,0.013523,0.002678,0.000431,0.000470
3636000,0.0324,0.013523,0.002678,0.000431,0.000705
3637000,0.0324,0.013523,0.002678,0.000431,0.000353
3638000,0.0324,0.013523,0.002678,0.000431,0.000705
3639000,0.0324,0.013523,0.002678,0.000431,0.000470
3640000,0.0324,0.013523,0.002678,0.000431,0.000470
3641000,0.0324,0.013523,0.002678,0.000431,0.000470
3642000,0.0324,0.013523,0.002678,0.000431,0.000470
3643000,0.0324,0.013523,0.002678,0.000431,0.000470
3644000,0.0324,0.013523,0.002678,0.000431,0.000470
3645000,0.0324,0.013523,0.002678,0.000431,0.000470
3646000,0.0324,0.013523,0.002678,0.000431,0.000588
3647000,0.0324,0.013523,0.002678,0.000431,0.000353
3648000,0.0324,0.013523,0.002678,0.000431,0.000470
3649000,0.0324,0.013523,0.002678,0.000431,0.000470
3650000,0.0324,0.013523,0.002678,0.000431,0.000470
3651000,0.0324,0.013523,0.002678,0.000431,0.000353
3652000,0.0324,0.013523,0.002678,0.000431,0.000705
3653000,0.0324,0.013523,0.002678,0.000431,0.000353
3654000,0.0324,0.013523,0.002678,0.000431,0.000705
3655000,0.0324,0.013523,0.002678,0.000431,0.000588
3656000,0.0324,0.013523,0.002678,0.000431,0.000470
3657000,0.0324,0.013523,0.002678,0.000431,0.000588
3658000,0.0324,0.013523,0.002678,0.000431,0.000353
3659000,0.0324,0.013523,0.002678,0.000431,0.000588
3660000,0.0324,0.013523,0.002678,0.000431,0.000353
3661000,0.0324,0.013523,0.002678,0.000431,0.000588
3662000,0.0324,0.013523,0.002678,0.000431,0.000353
3663000,0.0324,0.013523,0.002678,0.000431,0.000705
3664000,0.0324,0.013523,0.002678,0.000431,0.000470
3665000,0.0324,0.013523,0.002678,0.000431,0.000588
3666000,0.0324,0.013523,0.002678,0.000431,0.000353
3667000,0.0324,0.013523,0.002678,0.000431,0.000470
3668000,0.0324,0.013523,0.002678,0.000431,0.000470
3669000,0.0324,0.013523,0.002678,0.000431,0.000470
3670000,0.0324,0.013523,0.002678,0.000431,0.000470
3671000,0.0324,0.013523,0.002678,0.000431,0.000353
3672000,0.0324,0.013523,0.002678,0.000431,0.000470
3673000,0.0324,0.013523,0.002678,0.000431,0.000470
3674000,0.0324,0.013523,0.002678,0.000431,0.000470
3675000,0.0324,0.013523,0.002678,0.000431,0.000470
3676000,0.0324,0.013523,0.002678,0.000431,0.000470
3677000,0.0324,0.013523,0.002678,0.000431,0.000470
3678000,0.0324,0.013523,0.002678,0.000431,0.000823
3679000,0.0324,0.013523,0.002678,0.000431,0.000353
3680000,0.0324,0.013523,0.002678,0.000431,0.000705
3681000,0.0324,0.013523,0.002678,0.000431,0.000470
3682000,0.0324,0.013523,0.002678,0.000431,0.000470
3683000,0.0324,0.013523,0.002678,0.000431,0.000470
3684000,0.0324,0.013523,0.002678,0.000431,0.000470
3685000,0.0324,0.013523,0.002678,0.000431,0.000470
3686000,0.0324,0.013523,0.002678,0.000431,0.000470
3687000,0.0324,0.013523,0.002678,0.000431,0.000353
3688000,0.0324,0.013523,0.002678,0.000431,0.000705
3689000,0.0324,0.013523,0.002678,0.000431,0.000353
3690000,0.0324,0.013523,0.002678,0.000431,0.000705
3691000,0.0324,0.013523,0.002678,0.000431,0.000588
3692000,0.0324,0.013523,0.002678,0.000431,0.000470
3693000,0.0324,0.013523,0.002678,0.000431,0.000705
3694000,0.0324,0.013523,0.002678,0.000431,0.000353
3695000,0.0324,0.013523,0.002678,0.000431,0.000705
3696000,0.0324,0.013523,0.002678,0.000431,0.000470
3697000,0.0324,0.013523,0.002678,0.000431,0.000470
3698000,0.0324,0.013523,0.002678,0.000431,0.000470
3699000,0.0324,0.013523,0.002678,0.000431,0.000470
3700000,0.0324,0.013523,0.002678,0.000431,0.000470
3701000,0.0324,0.013523,0.002678,0.000431,0.000470
3702000,0.0324,0.013523,0.002678,0.000431,0.000353
3703000,0.0324,0.013523,0.002678,0.000431,0.000588
3704000,0.0324,0.013523,0.002678,0.000431,0.000353
3705000,0.0324,0.013523,0.002678,0.000431,0.000705
3706000,0.0324,0.013523,0.002678,0.000431,0.000353
3707000,0.0324,0.013523,0.002678,0.000431,0.000588
3708000,0.0324,0.013523,0.002678,0.000431,0.000353
3709000,0.0324,0.013523,0.002678,0.000431,0.000588
3710000,0.0324,0.013523,0.002678,0.000431,0.000353
3711000,0.0324,0.013523,0.002678,0.000431,0.000588
3712000,0.0324,0.013523,0.002678,0.000431,0.000353
3713000,0.0324,0.013523,0.002678,0.000431,0.000588
3714000,0.0324,0.013523,0.002678,0.000431,0.000353
3715000,0.0324,0.013523,0.002678,0.000431,0.000705
3716000,0.0324,0.013523,0.002678,0.000431,0.000353
3717000,0.0324,0.013523,0.002678,0.000431,0.000705
3718000,0.0324,0.013523,0.002678,0.000431,0.000353
3719000,0.0324,0.013523,0.002678,0.000431,0.000705
3720000,0.0324,0.013523,0.002678,0.000431,0.000588
3721000,0.0324,0.013523,0.002678,0.000431,0.000353
3722000,0.0324,0.013523,0.002678,0.000431,0.000470
3723000,0.0324,0.013523,0.002678,0.000431,0.000470
3724000,0.0324,0.013523,0.002678,0.000431,0.000470
3725000,0.0324,0.013523,0.002678,0.000431,0.000470
3726000,0.0324,0.013523,0.002678,0.000431,0.000588
3727000,0.0324,0.013523,0.002678,0.000431,0.000470
3728000,0.0324,0.013523,0.002678,0.000431,0.000588
3729000,0.0324,0.013523,0.002678,0.000431,0.000470
3730000,0.0324,0.013523,0.002678,0.000431,0.000470
3731000,0.0324,0.013523,0.002678,0.000431,0.000353
3732000,0.0324,0.013523,0.002678,0.000431,0.000588
3733000,0.0324,0.013523,0.002678,0.000431,0.000353
3734000,0.0324,0.013523,0.002678,0.000431,0.000588
3735000,0.0324,0.013523,0.002678,0.000431,0.000470
3736000,0.0324,0.013523,0.002678,0.000431,0.000588
3737000,0.0324,0.013523,0.002678,0.000431,0.000470
3738000,0.0324,0.013523,0.002678,0.000431,0.000705
3739000,0.0324,0.013523,0.002678,0.000431,0.000353
3740000,0.0324,0.013523,0.002678,0.000431,0.000705
3741000,0.0324,0.013523,0.002678,0.000431,0.000470
3742000,0.0324,0.013523,0.002678,0.000431,0.000470
3743000,0.0324,0.013523,0.002678,0.000431,0.000470
3744000,0.0324,0.013523,0.002678,0.000431,0.000470
3745000,0.0324,0.013523,0.002678,0.000431,0.000470
3746000,0.0324,0.013523,0.002678,0.000431,0.000470
3747000,0.0324,0.013523,0.002678,0.000431,0.000353
3748000,0.0324,0.013523,0.002678,0.000431,0.000588
3749000,0.0324,0.013523,0.002678,0.000431,0.000353
3750000,0.0324,0.013523,0.002678,0.000431,0.000588
3751000,0.0324,0.013523,0.002678,0.000431,0.000353
3752000,0.0324,0.013523,0.002678,0.000431,0.000588
3753000,0.0324,0.013523,0.002678,0.000431,0.000353
3754000,0.0324,0.013523,0.002678,0.000431,0.000705
3755000,0.0324,0.013523,0.002678,0.000431,0.000353
3756000,0.0324,0.013523,0.002678,0.000431,0.000705
3757000,0.0324,0.013523,0.002678,0.000431,0.000470
3758000,0.0324,0.013523,0.002678,0.000431,0.000470
3759000,0.0324,0.013523,0.002678,0.000431,0.000470
3760000,0.0324,0.013523,0.002678,0.000431,0.000588
3761000,0.0324,0.013523,0.002678,0.000431,0.000353
3762000,0.0324,0.013523,0.002678,0.000431,0.000588
3763000,0.0324,0.013523,0.002678,0.000431,0.000353
3764000,0.0324,0.013523,0.002678,0.000431,0.000588
3765000,0.0324,0.013523,0.002678,0.000431,0.000353
3766000,0.0324,0.013523,0.002678,0.000431,0.000470
3767000,0.0324,0.013523,0.002678,0.000431,0.000470
3768000,0.0324,0.013523,0.002678,0.000431,0.000470
3769000,0.0324,0.013523,0.002678,0.000431,0.000470
3770000,0.0324,0.013523,0.002678,0.000431,0.000470
3771000,0.0324,0.013523,0.002678,0.000431,0.000470
3772000,0.0324,0.013523,0.002678,0.000431,0.000470
3773000,0.0324,0.013523,0.002678,0.000431,0.000353
3774000,0.0324,0.013523,0.002678,0.000431,0.000588
3775000,0.0324,0.013523,0.002678,0.000431,0.000353
3776000,0.0324,0.013523,0.002678,0.000431,0.000705
3777000,0.0324,0.013523,0.002678,0.000431,0.000353
3778000,0.0324,0.013523,0.002678,0.000431,0.000705
3779000,0.0324,0.013523,0.002678,0.000431,0.000470
3780000,0.0324,0.013523,0.002678,0.000431,0.000588
3781000,0.0324,0.013523,0.002678,0.000431,0.000353
3782000,0.0324,0.013523,0.002678,0.000431,0.000470
3783000,0.0324,0.013523,0.002678,0.000431,0.000470
3784000,0.0324,0.013523,0.002678,0.000431,0.000470
3785000,0.0324,0.013523,0.002678,0.000431,0.000470
3786000,0.0324,0.013523,0.002678,0.000431,0.000470
3787000,0.0324,0.013523,0.002678,0.000431,0.000470
3788000,0.0324,0.013523,0.002678,0.000431,0.000470
3789000,0.0324,0.013523,0.002678,0.000431,0.000470
3790000,0.0324,0.013523,0.002678,0.000431,0.000470
3791000,0.0324,0.013523,0.002678,0.000431,0.000470
3792000,0.0324,0.013523,0.002678,0.000431,0.000588
3793000,0.0324,0.013523,0.002678,0.000431,0.000353
3794000,0.0324,0.013523,0.002678,0.000431,0.000588
3795000,0.0324,0.013523,0.002678,0.000431,0.000353
3796000,0.0324,0.013523,0.002678,0.000431,0.000470
3797000,0.0324,0.013523,0.002678,0.000431,0.000470
3798000,0.0324,0.013523,0.002678,0.000431,0.000470
3799000,0.0324,0.013523,0.002678,0.000431,0.000470
3800000,0.0324,0.013523,0.002678,0.000431,0.000470
3801000,0.0324,0.013523,0.002678,0.000431,0.000588
3802000,0.0324,0.013523,0.002678,0.000431,0.000353
3803000,0.0324,0.013523,0.002678,0.000431,0.000588
3804000,0.0324,0.013523,0.002678,0.000431,0.000353
3805000,0.0324,0.013523,0.002678,0.000431,0.000588
3806000,0.0324,0.013523,0.002678,0.000431,0.000353
3807000,0.0324,0.013523,0.002678,0.000431,0.000470
3808000,0.0324,0.013523,0.002678,0.000431,0.000470
3809000,0.0324,0.013523,0.002678,0.000431,0.000470
3810000,0.0324,0.013523,0.002678,0.000431,0.000470
3811000,0.0324,0.013523,0.002678,0.000431,0.000588
3812000,0.0324,0.013523,0.002678,0.000431,0.000353
3813000,0.0324,0.013523,0.002678,0.000431,0.000705
3814000,0.0324,0.013523,0.002678,0.000431,0.000470
3815000,0.0324,0.013523,0.002678,0.000431,0.000470
3816000,0.0324,0.013523,0.002678,0.000431,0.000470
3817000,0.0324,0.013523,0.002678,0.000431,0.000588
3818000,0.0324,0.013523,0.002678,0.000431,0.000353
3819000,0.0324,0.013523,0.002678,0.000431,0.000470
3820000,0.0324,0.013523,0.002678,0.000431,0.000470
3821000,0.0324,0.013523,0.002678,0.000431,0.000470
3822000,0.0324,0.013523,0.002678,0.000431,0.000470
3823000,0.0324,0.013523,0.002678,0.000431,0.000588
3824000,0.0324,0.013523,0.002678,0.000431,0.000470
3825000,0.0324,0.013523,0.002678,0.000431,0.000588
3826000,0.0324,0.013523,0.002678,0.000431,0.000353
3827000,0.0324,0.013523,0.002678,0.000431,0.000588
3828000,0.0324,0.013523,0.002678,0.000431,0.000353
3829000,0.0324,0.013523,0.002678,0.000431,0.000705
3830000,0.0324,0.013523,0.002678,0.000431,0.000353
3831000,0.0324,0.013523,0.002678,0.000431,0.000588
3832000,0.0324,0.013523,0.002678,0.000431,0.000353
3833000,0.0324,0.013523,0.002678,0.000431,0.000588
3834000,0.0324,0.013523,0.002678,0.000431,0.000353
3835000,0.0324,0.013523,0.002678,0.000431,0.000588
3836000,0.0324,0.013523,0.002678,0.000431,0.000353
3837000,0.0324,0.013523,0.002678,0.000431,0.000470
3838000,0.0324,0.013523,0.002678,0.000431,0.000353
3839000,0.0324,0.013523,0.002678,0.000431,0.000588
3840000,0.0324,0.013523,0.002678,0.000431,0.000470
3841000,0.0324,0.013523,0.002678,0.000431,0.000470
3842000,0.0324,0.013523,0.002678,0.000431,0.000470
3843000,0.0324,0.013523,0.002678,0.000431,0.000470
3844000,0.0324,0.013523,0.002678,0.000431,0.000470
3845000,0.0324,0.013523,0.002678,0.000431,0.000470
3846000,0.0324,0.013523,0.002678,0.000431,0.000470
3847000,0.0324,0.013523,0.002678,0.000431,0.000470
3848000,0.0324,0.013523,0.002678,0.000431,0.000470
3849000,0.0324,0.013523,0.002678,0.000431,0.000588
3850000,0.0324,0.013523,0.002678,0.000431,0.000470
3851000,0.0324,0.013523,0.002678,0.000431,0.000705
3852000,0.0324,0.013523,0.002678,0.000431,0.000353
3853000,0.0324,0.013523,0.002678,0.000431,0.000705
3854000,0.0324,0.013523,0.002678,0.000431,0.000353
3855000,0.0324,0.013523,0.002678,0.000431,0.000470
3856000,0.0324,0.013523,0.002678,0.000431,0.000353
3857000,0.0324,0.013523,0.002678,0.000431,0.000588
3858000,0.0324,0.013523,0.002678,0.000431,0.000470
3859000,0.0324,0.013523,0.002678,0.000431,0.000588
3860000,0.0324,0.013523,0.002678,0.000431,0.000353
3861000,0.0324,0.013523,0.002678,0.000431,0.000705
3862000,0.0324,0.013523,0.002678,0.000431,0.000353
3863000,0.0324,0.013523,0.002678,0.000431,0.000705
3864000,0.0324,0.013523,0.002678,0.000431,0.000588
3865000,0.0324,0.013523,0.002678,0.000431,0.000470
3866000,0.0324,0.013523,0.002678,0.000431,0.000705
3867000,0.0324,0.013523,0.002678,0.000431,0.000353
3868000,0.0324,0.013523,0.002678,0.000431,0.000705
3869000,0.0324,0.013523,0.002678,0.000431,0.000353
3870000,0.0324,0.013523,0.002678,0.000431,0.000705
3871000,0.0324,0.013523,0.002678,0.000431,0.000353
3872000,0.0324,0.013523,0.002678,0.000431,0.000705
3873000,0.0324,0.013523,0.002678,0.000431,0.000588
3874000,0.0324,0.013523,0.002678,0.000431,0.000470
3875000,0.0324,0.013523,0.002678,0.000431,0.000588
3876000,0.0324,0.013523,0.002678,0.000431,0.000353
3877000,0.0324,0.013523,0.002678,0.000431,0.000588
3878000,0.0324,0.013523,0.002678,0.000431,0.000470
3879000,0.0324,0.013523,0.002678,0.000431,0.000588
3880000,0.0324,0.013523,0.002678,0.000431,0.000470
3881000,0.0324,0.013523,0.002678,0.000431,0.000705
3882000,0.0324,0.013523,0.002678,0.000431,0.000353
3883000,0.0324,0.013523,0.002678,0.000431,0.000588
3884000,0.0324,0.013523,0.002678,0.000431,0.000470
3885000,0.0324,0.013523,0.002678,0.000431,0.000588
3886000,0.0324,0.013523,0.002678,0.000431,0.000588
3887000,0.0324,0.013523,0.002678,0.000431,0.000470
3888000,0.0324,0.013523,0.002678,0.000431,0.000705
3889000,0.0324,0.013523,0.002678,0.000431,0.000353
3890000,0.0324,0.013523,0.002678,0.000431,0.000705
3891000,0.0324,0.013523,0.002678,0.000431,0.000470
3892000,0.0324,0.013523,0.002678,0.000431,0.000470
3893000,0.0324,0.013523,0.002678,0.000431,0.000470
3894000,0.0324,0.013523,0.002678,0.000431,0.000470
3895000,0.0324,0.013523,0.002678,0.000431,0.000470
3896000,0.0324,0.013523,0.002678,0.000431,0.000470
3897000,0.0324,0.013523,0.002678,0.000431,0.000470
3898000,0.0324,0.013523,0.002678,0.000431,0.000470
3899000,0.0324,0.013523,0.002678,0.000431,0.000353
3900000,0.0324,0.013523,0.002678,0.000431,0.000588
3901000,0.0324,0.013523,0.002678,0.000431,0.000353
3902000,0.0324,0.013523,0.002678,0.000431,0.000588
3903000,0.0324,0.013523,0.002678,0.000431,0.000353
3904000,0.0324,0.013523,0.002678,0.000431,0.000705
3905000,0.0324,0.013523,0.002678,0.000431,0.000353
3906000,0.0324,0.013523,0.002678,0.000431,0.000588
3907000,0.0324,0.013523,0.002678,0.000431,0.000353
3908000,0.0324,0.013523,0.002678,0.000431,0.000588
3909000,0.0324,0.013523,0.002678,0.000431,0.000353
3910000,0.0324,0.013523,0.002678,0.000431,0.000588
3911000,0.0324,0.013523,0.002678,0.000431,0.000353
3912000,0.0324,0.013523,0.002678,0.000431,0.000588
3913000,0.0324,0.013523,0.002678,0.000431,0.000353
3914000,0.0324,0.013523,0.002678,0.000431,0.000588
3915000,0.0324,0.013523,0.002678,0.000431,0.000353
3916000,0.0324,0.013523,0.002678,0.000431,0.000588
3917000,0.0324,0.013523,0.002678,0.000431,0.000353
3918000,0.0324,0.013523,0.002678,0.000431,0.000470
3919000,0.0324,0.013523,0.002678,0.000431,0.000470
3920000,0.0324,0.013523,0.002678,0.000431,0.000470
3921000,0.0324,0.013523,0.002678,0.000431,0.000470
3922000,0.0324,0.013523,0.002678,0.000431,0.000588
3923000,0.0324,0.013523,0.002678,0.000431,0.000470
3924000,0.0324,0.013523,0.002678,0.000431,0.000588
3925000,0.0324,0.013523,0.002678,0.000431,0.000353
3926000,0.0324,0.013523,0.002678,0.000431,0.000705
3927000,0.0324,0.013523,0.002678,0.000431,0.000353
3928000,0.0324,0.013523,0.002678,0.000431,0.000588
3929000,0.0324,0.013523,0.002678,0.000431,0.000353
3930000,0.0324,0.013523,0.002678,0.000431,0.000588
3931000,0.0324,0.013523,0.002678,0.000431,0.000353
3932000,0.0324,0.013523,0.002678,0.000431,0.000588
3933000,0.0324,0.013523,0.002678,0.000431,0.000470
3934000,0.0324,0.013523,0.002678,0.000431,0.000705
3935000,0.0324,0.013523,0.002678,0.000431,0.000235
3936000,0.0324,0.013523,0.002678,0.000431,0.000823
3937000,0.0324,0.013523,0.002678,0.000431,0.000235
3938000,0.0324,0.013523,0.002678,0.000431,0.000705
3939000,0.0324,0.013523,0.002678,0.000431,0.000353
3940000,0.0324,0.013523,0.002678,0.000431,0.000588
3941000,0.0324,0.013523,0.002678,0.000431,0.000353
3942000,0.0324,0.013523,0.002678,0.000431,0.000588
3943000,0.0324,0.013523,0.002678,0.000431,0.000353
3944000,0.0324,0.013523,0.002678,0.000431,0.000705
3945000,0.0324,0.013523,0.002678,0.000431,0.000353
3946000,0.0324,0.013523,0.002678,0.000431,0.000705
3947000,0.0324,0.013523,0.002678,0.000431,0.000588
3948000,0.0324,0.013523,0.002678,0.000431,0.000470
3949000,0.0324,0.013523,0.002678,0.000431,0.000588
3950000,0.0324,0.013523,0.002678,0.000431,0.000353
3951000,0.0324,0.013523,0.002678,0.000431,0.000470
3952000,0.0324,0.013523,0.002678,0.000431,0.000705
3953000,0.0324,0.013523,0.002678,0.000431,0.000353
3954000,0.0324,0.013523,0.002678,0.000431,0.000588
3955000,0.0324,0.013523,0.002678,0.000431,0.000353
3956000,0.0324,0.013523,0.002678,0.000431,0.000470
3957000,0.0324,0.013523,0.002678,0.000431,0.000470
3958000,0.0324,0.013523,0.002678,0.000431,0.000588
3959000,0.0324,0.013523,0.002678,0.000431,0.000353
3960000,0.0324,0.013523,0.002678,0.000431,0.000588
3961000,0.0324,0.013523,0.002678,0.000431,0.000353
3962000,0.0324,0.013523,0.002678,0.000431,0.000470
3963000,0.0324,0.013523,0.002678,0.000431,0.000470
3964000,0.0324,0.013523,0.002678,0.000431,0.000588
3965000,0.0324,0.013523,0.002678,0.000431,0.000353
3966000,0.0324,0.013523,0.002678,0.000431,0.000705
3967000,0.0324,0.013523,0.002678,0.000431,0.000588
3968000,0.0324,0.013523,0.002678,0.000431,0.000470
3969000,0.0324,0.013523,0.002678,0.000431,0.000470
3970000,0.0324,0.013523,0.002678,0.000431,0.000470
3971000,0.0324,0.013523,0.002678,0.000431,0.000470
3972000,0.0324,0.013523,0.002678,0.000431,0.000470
3973000,0.0324,0.013523,0.002678,0.000431,0.000470
3974000,0.0324,0.013523,0.002678,0.000431,0.000470
3975000,0.0324,0.013523,0.002678,0.000431,0.000353
3976000,0.0324,0.013523,0.002678,0.000431,0.000588
3977000,0.0324,0.013523,0.002678,0.000431,0.000353
3978000,0.0324,0.013523,0.002678,0.000431,0.000705
3979000,0.0324,0.013523,0.002678,0.000431,0.000470
3980000,0.0324,0.013523,0.002678,0.000431,0.000470
3981000,0.0324,0.013523,0.002678,0.000431,0.000470
3982000,0.0324,0.013523,0.002678,0.000431,0.000470
3983000,0.0324,0.013523,0.002678,0.000431,0.000470
3984000,0.0324,0.013523,0.002678,0.000431,0.000470
3985000,0.0324,0.013523,0.002678,0.000431,0.000470
3986000,0.0324,0.013523,0.002678,0.000431,0.000470
3987000,0.0324,0.013523,0.002678,0.000431,0.000470
3988000,0.0324,0.013523,0.002678,0.000431,0.000705
3989000,0.0324,0.013523,0.002678,0.000431,0.000588
3990000,0.0324,0.013523,0.002678,0.000431,0.000470
3991000,0.0324,0.013523,0.002678,0.000431,0.000705
3992000,0.0324,0.013523,0.002678,0.000431,0.000470
3993000,0.0324,0.013523,0.002678,0.000431,0.000588
3994000,0.0324,0.013523,0.002678,0.000431,0.000353
3995000,0.0324,0.013523,0.002678,0.000431,0.000470
3996000,0.0324,0.013523,0.002678,0.000431,0.000470
3997000,0.0324,0.013523,0.002678,0.000431,0.000470
3998000,0.0324,0.013523,0.002678,0.000431,0.000470
3999000,0.0324,0.013523,0.002678,0.000431,0.000470
