Cycle,Area(mm^2),PeakDynamic(W),SubthresholdLeakage(W),GateLeakage(W),RunTimeDynamic(W)
9000000,0.0324,0.013523,0.002678,0.000431,0.000353
9001000,0.0324,0.013523,0.002678,0.000431,0.000823
9002000,0.0324,0.013523,0.002678,0.000431,0.000235
9003000,0.0324,0.013523,0.002678,0.000431,0.000823
9004000,0.0324,0.013523,0.002678,0.000431,0.000353
9005000,0.0324,0.013523,0.002678,0.000431,0.000588
9006000,0.0324,0.013523,0.002678,0.000431,0.000353
9007000,0.0324,0.013523,0.002678,0.000431,0.000705
9008000,0.0324,0.013523,0.002678,0.000431,0.000353
9009000,0.0324,0.013523,0.002678,0.000431,0.000705
9010000,0.0324,0.013523,0.002678,0.000431,0.000470
9011000,0.0324,0.013523,0.002678,0.000431,0.000470
9012000,0.0324,0.013523,0.002678,0.000431,0.000470
9013000,0.0324,0.013523,0.002678,0.000431,0.000470
9014000,0.0324,0.013523,0.002678,0.000431,0.000470
9015000,0.0324,0.013523,0.002678,0.000431,0.000470
9016000,0.0324,0.013523,0.002678,0.000431,0.000470
9017000,0.0324,0.013523,0.002678,0.000431,0.000470
9018000,0.0324,0.013523,0.002678,0.000431,0.000353
9019000,0.0324,0.013523,0.002678,0.000431,0.000588
9020000,0.0324,0.013523,0.002678,0.000431,0.000353
9021000,0.0324,0.013523,0.002678,0.000431,0.000588
9022000,0.0324,0.013523,0.002678,0.000431,0.000353
9023000,0.0324,0.013523,0.002678,0.000431,0.000588
9024000,0.0324,0.013523,0.002678,0.000431,0.000353
9025000,0.0324,0.013523,0.002678,0.000431,0.000588
9026000,0.0324,0.013523,0.002678,0.000431,0.000353
9027000,0.0324,0.013523,0.002678,0.000431,0.000705
9028000,0.0324,0.013523,0.002678,0.000431,0.000353
9029000,0.0324,0.013523,0.002678,0.000431,0.000588
9030000,0.0324,0.013523,0.002678,0.000431,0.000353
9031000,0.0324,0.013523,0.002678,0.000431,0.000588
9032000,0.0324,0.013523,0.002678,0.000431,0.000353
9033000,0.0324,0.013523,0.002678,0.000431,0.000470
9034000,0.0324,0.013523,0.002678,0.000431,0.000470
9035000,0.0324,0.013523,0.002678,0.000431,0.000588
9036000,0.0324,0.013523,0.002678,0.000431,0.000470
9037000,0.0324,0.013523,0.002678,0.000431,0.000705
9038000,0.0324,0.013523,0.002678,0.000431,0.000353
9039000,0.0324,0.013523,0.002678,0.000431,0.000588
9040000,0.0324,0.013523,0.002678,0.000431,0.000353
9041000,0.0324,0.013523,0.002678,0.000431,0.000588
9042000,0.0324,0.013523,0.002678,0.000431,0.000353
9043000,0.0324,0.013523,0.002678,0.000431,0.000705
9044000,0.0324,0.013523,0.002678,0.000431,0.000470
9045000,0.0324,0.013523,0.002678,0.000431,0.000470
9046000,0.0324,0.013523,0.002678,0.000431,0.000470
9047000,0.0324,0.013523,0.002678,0.000431,0.000470
9048000,0.0324,0.013523,0.002678,0.000431,0.000470
9049000,0.0324,0.013523,0.002678,0.000431,0.000470
9050000,0.0324,0.013523,0.002678,0.000431,0.000353
9051000,0.0324,0.013523,0.002678,0.000431,0.000470
9052000,0.0324,0.013523,0.002678,0.000431,0.000470
9053000,0.0324,0.013523,0.002678,0.000431,0.000588
9054000,0.0324,0.013523,0.002678,0.000431,0.000353
9055000,0.0324,0.013523,0.002678,0.000431,0.000588
9056000,0.0324,0.013523,0.002678,0.000431,0.000353
9057000,0.0324,0.013523,0.002678,0.000431,0.000588
9058000,0.0324,0.013523,0.002678,0.000431,0.000353
9059000,0.0324,0.013523,0.002678,0.000431,0.000588
9060000,0.0324,0.013523,0.002678,0.000431,0.000353
9061000,0.0324,0.013523,0.002678,0.000431,0.000588
9062000,0.0324,0.013523,0.002678,0.000431,0.000353
9063000,0.0324,0.013523,0.002678,0.000431,0.000588
9064000,0.0324,0.013523,0.002678,0.000431,0.000353
9065000,0.0324,0.013523,0.002678,0.000431,0.000588
9066000,0.0324,0.013523,0.002678,0.000431,0.000470
9067000,0.0324,0.013523,0.002678,0.000431,0.000470
9068000,0.0324,0.013523,0.002678,0.000431,0.000470
9069000,0.0324,0.013523,0.002678,0.000431,0.000470
9070000,0.0324,0.013523,0.002678,0.000431,0.000470
9071000,0.0324,0.013523,0.002678,0.000431,0.000470
9072000,0.0324,0.013523,0.002678,0.000431,0.000470
9073000,0.0324,0.013523,0.002678,0.000431,0.000470
9074000,0.0324,0.013523,0.002678,0.000431,0.000470
9075000,0.0324,0.013523,0.002678,0.000431,0.000470
9076000,0.0324,0.013523,0.002678,0.000431,0.000470
9077000,0.0324,0.013523,0.002678,0.000431,0.000353
9078000,0.0324,0.013523,0.002678,0.000431,0.000588
9079000,0.0324,0.013523,0.002678,0.000431,0.000353
9080000,0.0324,0.013523,0.002678,0.000431,0.000588
9081000,0.0324,0.013523,0.002678,0.000431,0.000353
9082000,0.0324,0.013523,0.002678,0.000431,0.000705
9083000,0.0324,0.013523,0.002678,0.000431,0.000353
9084000,0.0324,0.013523,0.002678,0.000431,0.000588
9085000,0.0324,0.013523,0.002678,0.000431,0.000353
9086000,0.0324,0.013523,0.002678,0.000431,0.000588
9087000,0.0324,0.013523,0.002678,0.000431,0.000353
9088000,0.0324,0.013523,0.002678,0.000431,0.000588
9089000,0.0324,0.013523,0.002678,0.000431,0.000353
9090000,0.0324,0.013523,0.002678,0.000431,0.000588
9091000,0.0324,0.013523,0.002678,0.000431,0.000353
9092000,0.0324,0.013523,0.002678,0.000431,0.000588
9093000,0.0324,0.013523,0.002678,0.000431,0.000353
9094000,0.0324,0.013523,0.002678,0.000431,0.000588
9095000,0.0324,0.013523,0.002678,0.000431,0.000353
9096000,0.0324,0.013523,0.002678,0.000431,0.000588
9097000,0.0324,0.013523,0.002678,0.000431,0.000353
9098000,0.0324,0.013523,0.002678,0.000431,0.000588
9099000,0.0324,0.013523,0.002678,0.000431,0.000353
9100000,0.0324,0.013523,0.002678,0.000431,0.000470
9101000,0.0324,0.013523,0.002678,0.000431,0.000470
9102000,0.0324,0.013523,0.002678,0.000431,0.000470
9103000,0.0324,0.013523,0.002678,0.000431,0.000470
9104000,0.0324,0.013523,0.002678,0.000431,0.000470
9105000,0.0324,0.013523,0.002678,0.000431,0.000470
9106000,0.0324,0.013523,0.002678,0.000431,0.000470
9107000,0.0324,0.013523,0.002678,0.000431,0.000470
9108000,0.0324,0.013523,0.002678,0.000431,0.000470
9109000,0.0324,0.013523,0.002678,0.000431,0.000470
9110000,0.0324,0.013523,0.002678,0.000431,0.000470
9111000,0.0324,0.013523,0.002678,0.000431,0.000470
9112000,0.0324,0.013523,0.002678,0.000431,0.000588
9113000,0.0324,0.013523,0.002678,0.000431,0.000470
9114000,0.0324,0.013523,0.002678,0.000431,0.000705
9115000,0.0324,0.013523,0.002678,0.000431,0.000353
9116000,0.0324,0.013523,0.002678,0.000431,0.000705
9117000,0.0324,0.013523,0.002678,0.000431,0.000470
9118000,0.0324,0.013523,0.002678,0.000431,0.000470
9119000,0.0324,0.013523,0.002678,0.000431,0.000470
9120000,0.0324,0.013523,0.002678,0.000431,0.000470
9121000,0.0324,0.013523,0.002678,0.000431,0.000353
9122000,0.0324,0.013523,0.002678,0.000431,0.000588
9123000,0.0324,0.013523,0.002678,0.000431,0.000353
9124000,0.0324,0.013523,0.002678,0.000431,0.000588
9125000,0.0324,0.013523,0.002678,0.000431,0.000353
9126000,0.0324,0.013523,0.002678,0.000431,0.000705
9127000,0.0324,0.013523,0.002678,0.000431,0.000353
9128000,0.0324,0.013523,0.002678,0.000431,0.000705
9129000,0.0324,0.013523,0.002678,0.000431,0.000588
9130000,0.0324,0.013523,0.002678,0.000431,0.000470
9131000,0.0324,0.013523,0.002678,0.000431,0.000588
9132000,0.0324,0.013523,0.002678,0.000431,0.000353
9133000,0.0324,0.013523,0.002678,0.000431,0.000470
9134000,0.0324,0.013523,0.002678,0.000431,0.000470
9135000,0.0324,0.013523,0.002678,0.000431,0.000470
9136000,0.0324,0.013523,0.002678,0.000431,0.000470
9137000,0.0324,0.013523,0.002678,0.000431,0.000353
9138000,0.0324,0.013523,0.002678,0.000431,0.000588
9139000,0.0324,0.013523,0.002678,0.000431,0.000353
9140000,0.0324,0.013523,0.002678,0.000431,0.000705
9141000,0.0324,0.013523,0.002678,0.000431,0.000588
9142000,0.0324,0.013523,0.002678,0.000431,0.000470
9143000,0.0324,0.013523,0.002678,0.000431,0.000588
9144000,0.0324,0.013523,0.002678,0.000431,0.000353
9145000,0.0324,0.013523,0.002678,0.000431,0.000470
9146000,0.0324,0.013523,0.002678,0.000431,0.000470
9147000,0.0324,0.013523,0.002678,0.000431,0.000705
9148000,0.0324,0.013523,0.002678,0.000431,0.000353
9149000,0.0324,0.013523,0.002678,0.000431,0.000588
9150000,0.0324,0.013523,0.002678,0.000431,0.000353
9151000,0.0324,0.013523,0.002678,0.000431,0.000470
9152000,0.0324,0.013523,0.002678,0.000431,0.000470
9153000,0.0324,0.013523,0.002678,0.000431,0.000470
9154000,0.0324,0.013523,0.002678,0.000431,0.000470
9155000,0.0324,0.013523,0.002678,0.000431,0.000470
9156000,0.0324,0.013523,0.002678,0.000431,0.000470
9157000,0.0324,0.013523,0.002678,0.000431,0.000470
9158000,0.0324,0.013523,0.002678,0.000431,0.000470
9159000,0.0324,0.013523,0.002678,0.000431,0.000588
9160000,0.0324,0.013523,0.002678,0.000431,0.000470
9161000,0.0324,0.013523,0.002678,0.000431,0.000705
9162000,0.0324,0.013523,0.002678,0.000431,0.000353
9163000,0.0324,0.013523,0.002678,0.000431,0.000588
9164000,0.0324,0.013523,0.002678,0.000431,0.000353
9165000,0.0324,0.013523,0.002678,0.000431,0.000588
9166000,0.0324,0.013523,0.002678,0.000431,0.000353
9167000,0.0324,0.013523,0.002678,0.000431,0.000470
9168000,0.0324,0.013523,0.002678,0.000431,0.000470
9169000,0.0324,0.013523,0.002678,0.000431,0.000588
9170000,0.0324,0.013523,0.002678,0.000431,0.000588
9171000,0.0324,0.013523,0.002678,0.000431,0.000470
9172000,0.0324,0.013523,0.002678,0.000431,0.000470
9173000,0.0324,0.013523,0.002678,0.000431,0.000470
9174000,0.0324,0.013523,0.002678,0.000431,0.000353
9175000,0.0324,0.013523,0.002678,0.000431,0.000588
9176000,0.0324,0.013523,0.002678,0.000431,0.000353
9177000,0.0324,0.013523,0.002678,0.000431,0.000588
9178000,0.0324,0.013523,0.002678,0.000431,0.000353
9179000,0.0324,0.013523,0.002678,0.000431,0.000588
9180000,0.0324,0.013523,0.002678,0.000431,0.000353
9181000,0.0324,0.013523,0.002678,0.000431,0.000588
9182000,0.0324,0.013523,0.002678,0.000431,0.000705
9183000,0.0324,0.013523,0.002678,0.000431,0.000353
9184000,0.0324,0.013523,0.002678,0.000431,0.000588
9185000,0.0324,0.013523,0.002678,0.000431,0.000588
9186000,0.0324,0.013523,0.002678,0.000431,0.000470
9187000,0.0324,0.013523,0.002678,0.000431,0.000588
9188000,0.0324,0.013523,0.002678,0.000431,0.000353
9189000,0.0324,0.013523,0.002678,0.000431,0.000588
9190000,0.0324,0.013523,0.002678,0.000431,0.000353
9191000,0.0324,0.013523,0.002678,0.000431,0.000588
9192000,0.0324,0.013523,0.002678,0.000431,0.000470
9193000,0.0324,0.013523,0.002678,0.000431,0.000470
9194000,0.0324,0.013523,0.002678,0.000431,0.000353
9195000,0.0324,0.013523,0.002678,0.000431,0.000705
9196000,0.0324,0.013523,0.002678,0.000431,0.000470
9197000,0.0324,0.013523,0.002678,0.000431,0.000705
9198000,0.0324,0.013523,0.002678,0.000431,0.000235
9199000,0.0324,0.013523,0.002678,0.000431,0.000705
9200000,0.0324,0.013523,0.002678,0.000431,0.000353
9201000,0.0324,0.013523,0.002678,0.000431,0.000705
9202000,0.0324,0.013523,0.002678,0.000431,0.000470
9203000,0.0324,0.013523,0.002678,0.000431,0.000470
9204000,0.0324,0.013523,0.002678,0.000431,0.000470
9205000,0.0324,0.013523,0.002678,0.000431,0.000470
9206000,0.0324,0.013523,0.002678,0.000431,0.000470
9207000,0.0324,0.013523,0.002678,0.000431,0.000470
9208000,0.0324,0.013523,0.002678,0.000431,0.000470
9209000,0.0324,0.013523,0.002678,0.000431,0.000588
9210000,0.0324,0.013523,0.002678,0.000431,0.000353
9211000,0.0324,0.013523,0.002678,0.000431,0.000588
9212000,0.0324,0.013523,0.002678,0.000431,0.000353
9213000,0.0324,0.013523,0.002678,0.000431,0.000470
9214000,0.0324,0.013523,0.002678,0.000431,0.000353
9215000,0.0324,0.013523,0.002678,0.000431,0.000588
9216000,0.0324,0.013523,0.002678,0.000431,0.000353
9217000,0.0324,0.013523,0.002678,0.000431,0.000705
9218000,0.0324,0.013523,0.002678,0.000431,0.000353
9219000,0.0324,0.013523,0.002678,0.000431,0.000705
9220000,0.0324,0.013523,0.002678,0.000431,0.000588
9221000,0.0324,0.013523,0.002678,0.000431,0.000470
9222000,0.0324,0.013523,0.002678,0.000431,0.000588
9223000,0.0324,0.013523,0.002678,0.000431,0.000353
9224000,0.0324,0.013523,0.002678,0.000431,0.000588
9225000,0.0324,0.013523,0.002678,0.000431,0.000353
9226000,0.0324,0.013523,0.002678,0.000431,0.000588
9227000,0.0324,0.013523,0.002678,0.000431,0.000353
9228000,0.0324,0.013523,0.002678,0.000431,0.000470
9229000,0.0324,0.013523,0.002678,0.000431,0.000470
9230000,0.0324,0.013523,0.002678,0.000431,0.000705
9231000,0.0324,0.013523,0.002678,0.000431,0.000470
9232000,0.0324,0.013523,0.002678,0.000431,0.000823
9233000,0.0324,0.013523,0.002678,0.000431,0.000353
9234000,0.0324,0.013523,0.002678,0.000431,0.000588
9235000,0.0324,0.013523,0.002678,0.000431,0.000353
9236000,0.0324,0.013523,0.002678,0.000431,0.000588
9237000,0.0324,0.013523,0.002678,0.000431,0.000353
9238000,0.0324,0.013523,0.002678,0.000431,0.000588
9239000,0.0324,0.013523,0.002678,0.000431,0.000353
9240000,0.0324,0.013523,0.002678,0.000431,0.000588
9241000,0.0324,0.013523,0.002678,0.000431,0.000353
9242000,0.0324,0.013523,0.002678,0.000431,0.000588
9243000,0.0324,0.013523,0.002678,0.000431,0.000353
9244000,0.0324,0.013523,0.002678,0.000431,0.000705
9245000,0.0324,0.013523,0.002678,0.000431,0.000353
9246000,0.0324,0.013523,0.002678,0.000431,0.000588
9247000,0.0324,0.013523,0.002678,0.000431,0.000470
9248000,0.0324,0.013523,0.002678,0.000431,0.000588
9249000,0.0324,0.013523,0.002678,0.000431,0.000588
9250000,0.0324,0.013523,0.002678,0.000431,0.000470
9251000,0.0324,0.013523,0.002678,0.000431,0.000705
9252000,0.0324,0.013523,0.002678,0.000431,0.000353
9253000,0.0324,0.013523,0.002678,0.000431,0.000588
9254000,0.0324,0.013523,0.002678,0.000431,0.000353
9255000,0.0324,0.013523,0.002678,0.000431,0.000705
9256000,0.0324,0.013523,0.002678,0.000431,0.000353
9257000,0.0324,0.013523,0.002678,0.000431,0.000705
9258000,0.0324,0.013523,0.002678,0.000431,0.000353
9259000,0.0324,0.013523,0.002678,0.000431,0.000588
9260000,0.0324,0.013523,0.002678,0.000431,0.000353
9261000,0.0324,0.013523,0.002678,0.000431,0.000588
9262000,0.0324,0.013523,0.002678,0.000431,0.000353
9263000,0.0324,0.013523,0.002678,0.000431,0.000823
9264000,0.0324,0.013523,0.002678,0.000431,0.000235
9265000,0.0324,0.013523,0.002678,0.000431,0.000705
9266000,0.0324,0.013523,0.002678,0.000431,0.000470
9267000,0.0324,0.013523,0.002678,0.000431,0.000588
9268000,0.0324,0.013523,0.002678,0.000431,0.000353
9269000,0.0324,0.013523,0.002678,0.000431,0.000588
9270000,0.0324,0.013523,0.002678,0.000431,0.000353
9271000,0.0324,0.013523,0.002678,0.000431,0.000588
9272000,0.0324,0.013523,0.002678,0.000431,0.000353
9273000,0.0324,0.013523,0.002678,0.000431,0.000705
9274000,0.0324,0.013523,0.002678,0.000431,0.000353
9275000,0.0324,0.013523,0.002678,0.000431,0.000588
9276000,0.0324,0.013523,0.002678,0.000431,0.000353
9277000,0.0324,0.013523,0.002678,0.000431,0.000705
9278000,0.0324,0.013523,0.002678,0.000431,0.000588
9279000,0.0324,0.013523,0.002678,0.000431,0.000353
9280000,0.0324,0.013523,0.002678,0.000431,0.000588
9281000,0.0324,0.013523,0.002678,0.000431,0.000470
9282000,0.0324,0.013523,0.002678,0.000431,0.000705
9283000,0.0324,0.013523,0.002678,0.000431,0.000470
9284000,0.0324,0.013523,0.002678,0.000431,0.000588
9285000,0.0324,0.013523,0.002678,0.000431,0.000235
9286000,0.0324,0.013523,0.002678,0.000431,0.000588
9287000,0.0324,0.013523,0.002678,0.000431,0.000353
9288000,0.0324,0.013523,0.002678,0.000431,0.000588
9289000,0.0324,0.013523,0.002678,0.000431,0.000353
9290000,0.0324,0.013523,0.002678,0.000431,0.000588
9291000,0.0324,0.013523,0.002678,0.000431,0.000353
9292000,0.0324,0.013523,0.002678,0.000431,0.000588
9293000,0.0324,0.013523,0.002678,0.000431,0.000353
9294000,0.0324,0.013523,0.002678,0.000431,0.000470
9295000,0.0324,0.013523,0.002678,0.000431,0.000470
9296000,0.0324,0.013523,0.002678,0.000431,0.000470
9297000,0.0324,0.013523,0.002678,0.000431,0.000470
9298000,0.0324,0.013523,0.002678,0.000431,0.000588
9299000,0.0324,0.013523,0.002678,0.000431,0.000470
9300000,0.0324,0.013523,0.002678,0.000431,0.000588
9301000,0.0324,0.013523,0.002678,0.000431,0.000353
9302000,0.0324,0.013523,0.002678,0.000431,0.000588
9303000,0.0324,0.013523,0.002678,0.000431,0.000353
9304000,0.0324,0.013523,0.002678,0.000431,0.000588
9305000,0.0324,0.013523,0.002678,0.000431,0.000353
9306000,0.0324,0.013523,0.002678,0.000431,0.000588
9307000,0.0324,0.013523,0.002678,0.000431,0.000353
9308000,0.0324,0.013523,0.002678,0.000431,0.000470
9309000,0.0324,0.013523,0.002678,0.000431,0.000470
9310000,0.0324,0.013523,0.002678,0.000431,0.000470
9311000,0.0324,0.013523,0.002678,0.000431,0.000470
9312000,0.0324,0.013523,0.002678,0.000431,0.000353
9313000,0.0324,0.013523,0.002678,0.000431,0.000705
9314000,0.0324,0.013523,0.002678,0.000431,0.000588
9315000,0.0324,0.013523,0.002678,0.000431,0.000470
9316000,0.0324,0.013523,0.002678,0.000431,0.000588
9317000,0.0324,0.013523,0.002678,0.000431,0.000353
9318000,0.0324,0.013523,0.002678,0.000431,0.000588
9319000,0.0324,0.013523,0.002678,0.000431,0.000353
9320000,0.0324,0.013523,0.002678,0.000431,0.000588
9321000,0.0324,0.013523,0.002678,0.000431,0.000353
9322000,0.0324,0.013523,0.002678,0.000431,0.000705
9323000,0.0324,0.013523,0.002678,0.000431,0.000470
9324000,0.0324,0.013523,0.002678,0.000431,0.000470
9325000,0.0324,0.013523,0.002678,0.000431,0.000470
9326000,0.0324,0.013523,0.002678,0.000431,0.000353
9327000,0.0324,0.013523,0.002678,0.000431,0.000470
9328000,0.0324,0.013523,0.002678,0.000431,0.000470
9329000,0.0324,0.013523,0.002678,0.000431,0.000588
9330000,0.0324,0.013523,0.002678,0.000431,0.000353
9331000,0.0324,0.013523,0.002678,0.000431,0.000588
9332000,0.0324,0.013523,0.002678,0.000431,0.000353
9333000,0.0324,0.013523,0.002678,0.000431,0.000588
9334000,0.0324,0.013523,0.002678,0.000431,0.000353
9335000,0.0324,0.013523,0.002678,0.000431,0.000588
9336000,0.0324,0.013523,0.002678,0.000431,0.000353
9337000,0.0324,0.013523,0.002678,0.000431,0.000470
9338000,0.0324,0.013523,0.002678,0.000431,0.000470
9339000,0.0324,0.013523,0.002678,0.000431,0.000588
9340000,0.0324,0.013523,0.002678,0.000431,0.000353
9341000,0.0324,0.013523,0.002678,0.000431,0.000705
9342000,0.0324,0.013523,0.002678,0.000431,0.000470
9343000,0.0324,0.013523,0.002678,0.000431,0.000470
9344000,0.0324,0.013523,0.002678,0.000431,0.000470
9345000,0.0324,0.013523,0.002678,0.000431,0.000470
9346000,0.0324,0.013523,0.002678,0.000431,0.000470
9347000,0.0324,0.013523,0.002678,0.000431,0.000353
9348000,0.0324,0.013523,0.002678,0.000431,0.000705
9349000,0.0324,0.013523,0.002678,0.000431,0.000470
9350000,0.0324,0.013523,0.002678,0.000431,0.000588
9351000,0.0324,0.013523,0.002678,0.000431,0.000470
9352000,0.0324,0.013523,0.002678,0.000431,0.000588
9353000,0.0324,0.013523,0.002678,0.000431,0.000470
9354000,0.0324,0.013523,0.002678,0.000431,0.000353
9355000,0.0324,0.013523,0.002678,0.000431,0.000588
9356000,0.0324,0.013523,0.002678,0.000431,0.000353
9357000,0.0324,0.013523,0.002678,0.000431,0.000588
9358000,0.0324,0.013523,0.002678,0.000431,0.000353
9359000,0.0324,0.013523,0.002678,0.000431,0.000470
9360000,0.0324,0.013523,0.002678,0.000431,0.000470
9361000,0.0324,0.013523,0.002678,0.000431,0.000705
9362000,0.0324,0.013523,0.002678,0.000431,0.000470
9363000,0.0324,0.013523,0.002678,0.000431,0.000470
9364000,0.0324,0.013523,0.002678,0.000431,0.000470
9365000,0.0324,0.013523,0.002678,0.000431,0.000470
9366000,0.0324,0.013523,0.002678,0.000431,0.000470
9367000,0.0324,0.013523,0.002678,0.000431,0.000470
9368000,0.0324,0.013523,0.002678,0.000431,0.000353
9369000,0.0324,0.013523,0.002678,0.000431,0.000588
9370000,0.0324,0.013523,0.002678,0.000431,0.000353
9371000,0.0324,0.013523,0.002678,0.000431,0.000470
9372000,0.0324,0.013523,0.002678,0.000431,0.000353
9373000,0.0324,0.013523,0.002678,0.000431,0.000705
9374000,0.0324,0.013523,0.002678,0.000431,0.000353
9375000,0.0324,0.013523,0.002678,0.000431,0.000588
9376000,0.0324,0.013523,0.002678,0.000431,0.000353
9377000,0.0324,0.013523,0.002678,0.000431,0.000588
9378000,0.0324,0.013523,0.002678,0.000431,0.000353
9379000,0.0324,0.013523,0.002678,0.000431,0.000705
9380000,0.0324,0.013523,0.002678,0.000431,0.000353
9381000,0.0324,0.013523,0.002678,0.000431,0.000588
9382000,0.0324,0.013523,0.002678,0.000431,0.000588
9383000,0.0324,0.013523,0.002678,0.000431,0.000353
9384000,0.0324,0.013523,0.002678,0.000431,0.000588
9385000,0.0324,0.013523,0.002678,0.000431,0.000470
9386000,0.0324,0.013523,0.002678,0.000431,0.000470
9387000,0.0324,0.013523,0.002678,0.000431,0.000470
9388000,0.0324,0.013523,0.002678,0.000431,0.000470
9389000,0.0324,0.013523,0.002678,0.000431,0.000588
9390000,0.0324,0.013523,0.002678,0.000431,0.000353
9391000,0.0324,0.013523,0.002678,0.000431,0.000470
9392000,0.0324,0.013523,0.002678,0.000431,0.000470
9393000,0.0324,0.013523,0.002678,0.000431,0.000470
9394000,0.0324,0.013523,0.002678,0.000431,0.000470
9395000,0.0324,0.013523,0.002678,0.000431,0.000588
9396000,0.0324,0.013523,0.002678,0.000431,0.000470
9397000,0.0324,0.013523,0.002678,0.000431,0.000588
9398000,0.0324,0.013523,0.002678,0.000431,0.000353
9399000,0.0324,0.013523,0.002678,0.000431,0.000588
9400000,0.0324,0.013523,0.002678,0.000431,0.000353
9401000,0.0324,0.013523,0.002678,0.000431,0.000588
9402000,0.0324,0.013523,0.002678,0.000431,0.000353
9403000,0.0324,0.013523,0.002678,0.000431,0.000588
9404000,0.0324,0.013523,0.002678,0.000431,0.000353
9405000,0.0324,0.013523,0.002678,0.000431,0.000588
9406000,0.0324,0.013523,0.002678,0.000431,0.000353
9407000,0.0324,0.013523,0.002678,0.000431,0.000588
9408000,0.0324,0.013523,0.002678,0.000431,0.000353
9409000,0.0324,0.013523,0.002678,0.000431,0.000470
9410000,0.0324,0.013523,0.002678,0.000431,0.000588
9411000,0.0324,0.013523,0.002678,0.000431,0.000588
9412000,0.0324,0.013523,0.002678,0.000431,0.000470
9413000,0.0324,0.013523,0.002678,0.000431,0.000705
9414000,0.0324,0.013523,0.002678,0.000431,0.000353
9415000,0.0324,0.013523,0.002678,0.000431,0.000705
9416000,0.0324,0.013523,0.002678,0.000431,0.000588
9417000,0.0324,0.013523,0.002678,0.000431,0.000470
9418000,0.0324,0.013523,0.002678,0.000431,0.000705
9419000,0.0324,0.013523,0.002678,0.000431,0.000353
9420000,0.0324,0.013523,0.002678,0.000431,0.000588
9421000,0.0324,0.013523,0.002678,0.000431,0.000353
9422000,0.0324,0.013523,0.002678,0.000431,0.000470
9423000,0.0324,0.013523,0.002678,0.000431,0.000470
9424000,0.0324,0.013523,0.002678,0.000431,0.000470
9425000,0.0324,0.013523,0.002678,0.000431,0.000470
9426000,0.0324,0.013523,0.002678,0.000431,0.000470
9427000,0.0324,0.013523,0.002678,0.000431,0.000470
9428000,0.0324,0.013523,0.002678,0.000431,0.000470
9429000,0.0324,0.013523,0.002678,0.000431,0.000470
9430000,0.0324,0.013523,0.002678,0.000431,0.000470
9431000,0.0324,0.013523,0.002678,0.000431,0.000470
9432000,0.0324,0.013523,0.002678,0.000431,0.000470
9433000,0.0324,0.013523,0.002678,0.000431,0.000470
9434000,0.0324,0.013523,0.002678,0.000431,0.000588
9435000,0.0324,0.013523,0.002678,0.000431,0.000470
9436000,0.0324,0.013523,0.002678,0.000431,0.000588
9437000,0.0324,0.013523,0.002678,0.000431,0.000353
9438000,0.0324,0.013523,0.002678,0.000431,0.000705
9439000,0.0324,0.013523,0.002678,0.000431,0.000353
9440000,0.0324,0.013523,0.002678,0.000431,0.000470
9441000,0.0324,0.013523,0.002678,0.000431,0.000470
9442000,0.0324,0.013523,0.002678,0.000431,0.000588
9443000,0.0324,0.013523,0.002678,0.000431,0.000588
9444000,0.0324,0.013523,0.002678,0.000431,0.000470
9445000,0.0324,0.013523,0.002678,0.000431,0.000470
9446000,0.0324,0.013523,0.002678,0.000431,0.000470
9447000,0.0324,0.013523,0.002678,0.000431,0.000353
9448000,0.0324,0.013523,0.002678,0.000431,0.000588
9449000,0.0324,0.013523,0.002678,0.000431,0.000353
9450000,0.0324,0.013523,0.002678,0.000431,0.000588
9451000,0.0324,0.013523,0.002678,0.000431,0.000353
9452000,0.0324,0.013523,0.002678,0.000431,0.000588
9453000,0.0324,0.013523,0.002678,0.000431,0.000353
9454000,0.0324,0.013523,0.002678,0.000431,0.000588
9455000,0.0324,0.013523,0.002678,0.000431,0.000353
9456000,0.0324,0.013523,0.002678,0.000431,0.000470
9457000,0.0324,0.013523,0.002678,0.000431,0.000470
9458000,0.0324,0.013523,0.002678,0.000431,0.000353
9459000,0.0324,0.013523,0.002678,0.000431,0.000588
9460000,0.0324,0.013523,0.002678,0.000431,0.000353
9461000,0.0324,0.013523,0.002678,0.000431,0.000823
9462000,0.0324,0.013523,0.002678,0.000431,0.000470
9463000,0.0324,0.013523,0.002678,0.000431,0.000588
9464000,0.0324,0.013523,0.002678,0.000431,0.000353
9465000,0.0324,0.013523,0.002678,0.000431,0.000588
9466000,0.0324,0.013523,0.002678,0.000431,0.000353
9467000,0.0324,0.013523,0.002678,0.000431,0.000588
9468000,0.0324,0.013523,0.002678,0.000431,0.000353
9469000,0.0324,0.013523,0.002678,0.000431,0.000588
9470000,0.0324,0.013523,0.002678,0.000431,0.000353
9471000,0.0324,0.013523,0.002678,0.000431,0.000588
9472000,0.0324,0.013523,0.002678,0.000431,0.000353
9473000,0.0324,0.013523,0.002678,0.000431,0.000588
9474000,0.0324,0.013523,0.002678,0.000431,0.000353
9475000,0.0324,0.013523,0.002678,0.000431,0.000588
9476000,0.0324,0.013523,0.002678,0.000431,0.000353
9477000,0.0324,0.013523,0.002678,0.000431,0.000470
9478000,0.0324,0.013523,0.002678,0.000431,0.000470
9479000,0.0324,0.013523,0.002678,0.000431,0.000353
9480000,0.0324,0.013523,0.002678,0.000431,0.000588
9481000,0.0324,0.013523,0.002678,0.000431,0.000353
9482000,0.0324,0.013523,0.002678,0.000431,0.000705
9483000,0.0324,0.013523,0.002678,0.000431,0.000470
9484000,0.0324,0.013523,0.002678,0.000431,0.000470
9485000,0.0324,0.013523,0.002678,0.000431,0.000470
9486000,0.0324,0.013523,0.002678,0.000431,0.000470
9487000,0.0324,0.013523,0.002678,0.000431,0.000588
9488000,0.0324,0.013523,0.002678,0.000431,0.000470
9489000,0.0324,0.013523,0.002678,0.000431,0.000588
9490000,0.0324,0.013523,0.002678,0.000431,0.000353
9491000,0.0324,0.013523,0.002678,0.000431,0.000705
9492000,0.0324,0.013523,0.002678,0.000431,0.000470
9493000,0.0324,0.013523,0.002678,0.000431,0.000470
9494000,0.0324,0.013523,0.002678,0.000431,0.000470
9495000,0.0324,0.013523,0.002678,0.000431,0.000705
9496000,0.0324,0.013523,0.002678,0.000431,0.000353
9497000,0.0324,0.013523,0.002678,0.000431,0.000705
9498000,0.0324,0.013523,0.002678,0.000431,0.000470
9499000,0.0324,0.013523,0.002678,0.000431,0.000470
9500000,0.0324,0.013523,0.002678,0.000431,0.000470
9501000,0.0324,0.013523,0.002678,0.000431,0.000470
9502000,0.0324,0.013523,0.002678,0.000431,0.000470
9503000,0.0324,0.013523,0.002678,0.000431,0.000470
9504000,0.0324,0.013523,0.002678,0.000431,0.000470
9505000,0.0324,0.013523,0.002678,0.000431,0.000470
9506000,0.0324,0.013523,0.002678,0.000431,0.000470
9507000,0.0324,0.013523,0.002678,0.000431,0.000470
9508000,0.0324,0.013523,0.002678,0.000431,0.000353
9509000,0.0324,0.013523,0.002678,0.000431,0.000588
9510000,0.0324,0.013523,0.002678,0.000431,0.000353
9511000,0.0324,0.013523,0.002678,0.000431,0.000588
9512000,0.0324,0.013523,0.002678,0.000431,0.000353
9513000,0.0324,0.013523,0.002678,0.000431,0.000588
9514000,0.0324,0.013523,0.002678,0.000431,0.000353
9515000,0.0324,0.013523,0.002678,0.000431,0.000588
9516000,0.0324,0.013523,0.002678,0.000431,0.000353
9517000,0.0324,0.013523,0.002678,0.000431,0.000588
9518000,0.0324,0.013523,0.002678,0.000431,0.000353
9519000,0.0324,0.013523,0.002678,0.000431,0.000705
9520000,0.0324,0.013523,0.002678,0.000431,0.000353
9521000,0.0324,0.013523,0.002678,0.000431,0.000588
9522000,0.0324,0.013523,0.002678,0.000431,0.000353
9523000,0.0324,0.013523,0.002678,0.000431,0.000588
9524000,0.0324,0.013523,0.002678,0.000431,0.000353
9525000,0.0324,0.013523,0.002678,0.000431,0.000470
9526000,0.0324,0.013523,0.002678,0.000431,0.000470
9527000,0.0324,0.013523,0.002678,0.000431,0.000588
9528000,0.0324,0.013523,0.002678,0.000431,0.000470
9529000,0.0324,0.013523,0.002678,0.000431,0.000588
9530000,0.0324,0.013523,0.002678,0.000431,0.000353
9531000,0.0324,0.013523,0.002678,0.000431,0.000588
9532000,0.0324,0.013523,0.002678,0.000431,0.000353
9533000,0.0324,0.013523,0.002678,0.000431,0.000588
9534000,0.0324,0.013523,0.002678,0.000431,0.000470
9535000,0.0324,0.013523,0.002678,0.000431,0.000470
9536000,0.0324,0.013523,0.002678,0.000431,0.000470
9537000,0.0324,0.013523,0.002678,0.000431,0.000588
9538000,0.0324,0.013523,0.002678,0.000431,0.000470
9539000,0.0324,0.013523,0.002678,0.000431,0.000588
9540000,0.0324,0.013523,0.002678,0.000431,0.000353
9541000,0.0324,0.013523,0.002678,0.000431,0.000470
9542000,0.0324,0.013523,0.002678,0.000431,0.000470
9543000,0.0324,0.013523,0.002678,0.000431,0.000470
9544000,0.0324,0.013523,0.002678,0.000431,0.000470
9545000,0.0324,0.013523,0.002678,0.000431,0.000353
9546000,0.0324,0.013523,0.002678,0.000431,0.000588
9547000,0.0324,0.013523,0.002678,0.000431,0.000353
9548000,0.0324,0.013523,0.002678,0.000431,0.000588
9549000,0.0324,0.013523,0.002678,0.000431,0.000353
9550000,0.0324,0.013523,0.002678,0.000431,0.000705
9551000,0.0324,0.013523,0.002678,0.000431,0.000470
9552000,0.0324,0.013523,0.002678,0.000431,0.000470
9553000,0.0324,0.013523,0.002678,0.000431,0.000470
9554000,0.0324,0.013523,0.002678,0.000431,0.000470
9555000,0.0324,0.013523,0.002678,0.000431,0.000470
9556000,0.0324,0.013523,0.002678,0.000431,0.000470
9557000,0.0324,0.013523,0.002678,0.000431,0.000470
9558000,0.0324,0.013523,0.002678,0.000431,0.000470
9559000,0.0324,0.013523,0.002678,0.000431,0.000470
9560000,0.0324,0.013523,0.002678,0.000431,0.000588
9561000,0.0324,0.013523,0.002678,0.000431,0.000353
9562000,0.0324,0.013523,0.002678,0.000431,0.000470
9563000,0.0324,0.013523,0.002678,0.000431,0.000353
9564000,0.0324,0.013523,0.002678,0.000431,0.000588
9565000,0.0324,0.013523,0.002678,0.000431,0.000470
9566000,0.0324,0.013523,0.002678,0.000431,0.000470
9567000,0.0324,0.013523,0.002678,0.000431,0.000470
9568000,0.0324,0.013523,0.002678,0.000431,0.000588
9569000,0.0324,0.013523,0.002678,0.000431,0.000470
9570000,0.0324,0.013523,0.002678,0.000431,0.000588
9571000,0.0324,0.013523,0.002678,0.000431,0.000353
9572000,0.0324,0.013523,0.002678,0.000431,0.000588
9573000,0.0324,0.013523,0.002678,0.000431,0.000353
9574000,0.0324,0.013523,0.002678,0.000431,0.000588
9575000,0.0324,0.013523,0.002678,0.000431,0.000353
9576000,0.0324,0.013523,0.002678,0.000431,0.000588
9577000,0.0324,0.013523,0.002678,0.000431,0.000353
9578000,0.0324,0.013523,0.002678,0.000431,0.000588
9579000,0.0324,0.013523,0.002678,0.000431,0.000353
9580000,0.0324,0.013523,0.002678,0.000431,0.000470
9581000,0.0324,0.013523,0.002678,0.000431,0.000470
9582000,0.0324,0.013523,0.002678,0.000431,0.000470
9583000,0.0324,0.013523,0.002678,0.000431,0.000470
9584000,0.0324,0.013523,0.002678,0.000431,0.000470
9585000,0.0324,0.013523,0.002678,0.000431,0.000470
9586000,0.0324,0.013523,0.002678,0.000431,0.000470
9587000,0.0324,0.013523,0.002678,0.000431,0.000588
9588000,0.0324,0.013523,0.002678,0.000431,0.000353
9589000,0.0324,0.013523,0.002678,0.000431,0.000588
9590000,0.0324,0.013523,0.002678,0.000431,0.000353
9591000,0.0324,0.013523,0.002678,0.000431,0.000588
9592000,0.0324,0.013523,0.002678,0.000431,0.000353
9593000,0.0324,0.013523,0.002678,0.000431,0.000588
9594000,0.0324,0.013523,0.002678,0.000431,0.000353
9595000,0.0324,0.013523,0.002678,0.000431,0.000705
9596000,0.0324,0.013523,0.002678,0.000431,0.000353
9597000,0.0324,0.013523,0.002678,0.000431,0.000705
9598000,0.0324,0.013523,0.002678,0.000431,0.000588
9599000,0.0324,0.013523,0.002678,0.000431,0.000470
9600000,0.0324,0.013523,0.002678,0.000431,0.000588
9601000,0.0324,0.013523,0.002678,0.000431,0.000353
9602000,0.0324,0.013523,0.002678,0.000431,0.000470
9603000,0.0324,0.013523,0.002678,0.000431,0.000470
9604000,0.0324,0.013523,0.002678,0.000431,0.000470
9605000,0.0324,0.013523,0.002678,0.000431,0.000588
9606000,0.0324,0.013523,0.002678,0.000431,0.000588
9607000,0.0324,0.013523,0.002678,0.000431,0.000588
9608000,0.0324,0.013523,0.002678,0.000431,0.000470
9609000,0.0324,0.013523,0.002678,0.000431,0.000353
9610000,0.0324,0.013523,0.002678,0.000431,0.000588
9611000,0.0324,0.013523,0.002678,0.000431,0.000470
9612000,0.0324,0.013523,0.002678,0.000431,0.000470
9613000,0.0324,0.013523,0.002678,0.000431,0.000470
9614000,0.0324,0.013523,0.002678,0.000431,0.000470
9615000,0.0324,0.013523,0.002678,0.000431,0.000470
9616000,0.0324,0.013523,0.002678,0.000431,0.000470
9617000,0.0324,0.013523,0.002678,0.000431,0.000470
9618000,0.0324,0.013523,0.002678,0.000431,0.000470
9619000,0.0324,0.013523,0.002678,0.000431,0.000470
9620000,0.0324,0.013523,0.002678,0.000431,0.000470
9621000,0.0324,0.013523,0.002678,0.000431,0.000588
9622000,0.0324,0.013523,0.002678,0.000431,0.000353
9623000,0.0324,0.013523,0.002678,0.000431,0.000470
9624000,0.0324,0.013523,0.002678,0.000431,0.000470
9625000,0.0324,0.013523,0.002678,0.000431,0.000588
9626000,0.0324,0.013523,0.002678,0.000431,0.000470
9627000,0.0324,0.013523,0.002678,0.000431,0.000588
9628000,0.0324,0.013523,0.002678,0.000431,0.000588
9629000,0.0324,0.013523,0.002678,0.000431,0.000470
9630000,0.0324,0.013523,0.002678,0.000431,0.000705
9631000,0.0324,0.013523,0.002678,0.000431,0.000353
9632000,0.0324,0.013523,0.002678,0.000431,0.000705
9633000,0.0324,0.013523,0.002678,0.000431,0.000470
9634000,0.0324,0.013523,0.002678,0.000431,0.000588
9635000,0.0324,0.013523,0.002678,0.000431,0.000353
9636000,0.0324,0.013523,0.002678,0.000431,0.000588
9637000,0.0324,0.013523,0.002678,0.000431,0.000353
9638000,0.0324,0.013523,0.002678,0.000431,0.000588
9639000,0.0324,0.013523,0.002678,0.000431,0.000353
9640000,0.0324,0.013523,0.002678,0.000431,0.000588
9641000,0.0324,0.013523,0.002678,0.000431,0.000353
9642000,0.0324,0.013523,0.002678,0.000431,0.000470
9643000,0.0324,0.013523,0.002678,0.000431,0.000470
9644000,0.0324,0.013523,0.002678,0.000431,0.000470
9645000,0.0324,0.013523,0.002678,0.000431,0.000470
9646000,0.0324,0.013523,0.002678,0.000431,0.000470
9647000,0.0324,0.013523,0.002678,0.000431,0.000353
9648000,0.0324,0.013523,0.002678,0.000431,0.000823
9649000,0.0324,0.013523,0.002678,0.000431,0.000353
9650000,0.0324,0.013523,0.002678,0.000431,0.000588
9651000,0.0324,0.013523,0.002678,0.000431,0.000353
9652000,0.0324,0.013523,0.002678,0.000431,0.000588
9653000,0.0324,0.013523,0.002678,0.000431,0.000353
9654000,0.0324,0.013523,0.002678,0.000431,0.000588
9655000,0.0324,0.013523,0.002678,0.000431,0.000353
9656000,0.0324,0.013523,0.002678,0.000431,0.000588
9657000,0.0324,0.013523,0.002678,0.000431,0.000353
9658000,0.0324,0.013523,0.002678,0.000431,0.000588
9659000,0.0324,0.013523,0.002678,0.000431,0.000353
9660000,0.0324,0.013523,0.002678,0.000431,0.000470
9661000,0.0324,0.013523,0.002678,0.000431,0.000353
9662000,0.0324,0.013523,0.002678,0.000431,0.000705
9663000,0.0324,0.013523,0.002678,0.000431,0.000353
9664000,0.0324,0.013523,0.002678,0.000431,0.000588
9665000,0.0324,0.013523,0.002678,0.000431,0.000353
9666000,0.0324,0.013523,0.002678,0.000431,0.000588
9667000,0.0324,0.013523,0.002678,0.000431,0.000353
9668000,0.0324,0.013523,0.002678,0.000431,0.000588
9669000,0.0324,0.013523,0.002678,0.000431,0.000470
9670000,0.0324,0.013523,0.002678,0.000431,0.000588
9671000,0.0324,0.013523,0.002678,0.000431,0.000470
9672000,0.0324,0.013523,0.002678,0.000431,0.000588
9673000,0.0324,0.013523,0.002678,0.000431,0.000353
9674000,0.0324,0.013523,0.002678,0.000431,0.000470
9675000,0.0324,0.013523,0.002678,0.000431,0.000470
9676000,0.0324,0.013523,0.002678,0.000431,0.000588
9677000,0.0324,0.013523,0.002678,0.000431,0.000470
9678000,0.0324,0.013523,0.002678,0.000431,0.000470
9679000,0.0324,0.013523,0.002678,0.000431,0.000470
9680000,0.0324,0.013523,0.002678,0.000431,0.000353
9681000,0.0324,0.013523,0.002678,0.000431,0.000588
9682000,0.0324,0.013523,0.002678,0.000431,0.000353
9683000,0.0324,0.013523,0.002678,0.000431,0.000588
9684000,0.0324,0.013523,0.002678,0.000431,0.000470
9685000,0.0324,0.013523,0.002678,0.000431,0.000470
9686000,0.0324,0.013523,0.002678,0.000431,0.000470
9687000,0.0324,0.013523,0.002678,0.000431,0.000470
9688000,0.0324,0.013523,0.002678,0.000431,0.000470
9689000,0.0324,0.013523,0.002678,0.000431,0.000588
9690000,0.0324,0.013523,0.002678,0.000431,0.000470
9691000,0.0324,0.013523,0.002678,0.000431,0.000705
9692000,0.0324,0.013523,0.002678,0.000431,0.000353
9693000,0.0324,0.013523,0.002678,0.000431,0.000588
9694000,0.0324,0.013523,0.002678,0.000431,0.000353
9695000,0.0324,0.013523,0.002678,0.000431,0.000588
9696000,0.0324,0.013523,0.002678,0.000431,0.000353
9697000,0.0324,0.013523,0.002678,0.000431,0.000588
9698000,0.0324,0.013523,0.002678,0.000431,0.000353
9699000,0.0324,0.013523,0.002678,0.000431,0.000588
9700000,0.0324,0.013523,0.002678,0.000431,0.000353
9701000,0.0324,0.013523,0.002678,0.000431,0.000588
9702000,0.0324,0.013523,0.002678,0.000431,0.000353
9703000,0.0324,0.013523,0.002678,0.000431,0.000588
9704000,0.0324,0.013523,0.002678,0.000431,0.000353
9705000,0.0324,0.013523,0.002678,0.000431,0.000588
9706000,0.0324,0.013523,0.002678,0.000431,0.000353
9707000,0.0324,0.013523,0.002678,0.000431,0.000470
9708000,0.0324,0.013523,0.002678,0.000431,0.000470
9709000,0.0324,0.013523,0.002678,0.000431,0.000588
9710000,0.0324,0.013523,0.002678,0.000431,0.000588
9711000,0.0324,0.013523,0.002678,0.000431,0.000470
9712000,0.0324,0.013523,0.002678,0.000431,0.000470
9713000,0.0324,0.013523,0.002678,0.000431,0.000588
9714000,0.0324,0.013523,0.002678,0.000431,0.000470
9715000,0.0324,0.013523,0.002678,0.000431,0.000588
9716000,0.0324,0.013523,0.002678,0.000431,0.000353
9717000,0.0324,0.013523,0.002678,0.000431,0.000588
9718000,0.0324,0.013523,0.002678,0.000431,0.000470
9719000,0.0324,0.013523,0.002678,0.000431,0.000470
9720000,0.0324,0.013523,0.002678,0.000431,0.000470
9721000,0.0324,0.013523,0.002678,0.000431,0.000470
9722000,0.0324,0.013523,0.002678,0.000431,0.000470
9723000,0.0324,0.013523,0.002678,0.000431,0.000588
9724000,0.0324,0.013523,0.002678,0.000431,0.000470
9725000,0.0324,0.013523,0.002678,0.000431,0.000588
9726000,0.0324,0.013523,0.002678,0.000431,0.000353
9727000,0.0324,0.013523,0.002678,0.000431,0.000588
9728000,0.0324,0.013523,0.002678,0.000431,0.000353
9729000,0.0324,0.013523,0.002678,0.000431,0.000705
9730000,0.0324,0.013523,0.002678,0.000431,0.000470
9731000,0.0324,0.013523,0.002678,0.000431,0.000588
9732000,0.0324,0.013523,0.002678,0.000431,0.000353
9733000,0.0324,0.013523,0.002678,0.000431,0.000470
9734000,0.0324,0.013523,0.002678,0.000431,0.000470
9735000,0.0324,0.013523,0.002678,0.000431,0.000470
9736000,0.0324,0.013523,0.002678,0.000431,0.000470
9737000,0.0324,0.013523,0.002678,0.000431,0.000470
9738000,0.0324,0.013523,0.002678,0.000431,0.000470
9739000,0.0324,0.013523,0.002678,0.000431,0.000353
9740000,0.0324,0.013523,0.002678,0.000431,0.000705
9741000,0.0324,0.013523,0.002678,0.000431,0.000588
9742000,0.0324,0.013523,0.002678,0.000431,0.000470
9743000,0.0324,0.013523,0.002678,0.000431,0.000705
9744000,0.0324,0.013523,0.002678,0.000431,0.000353
9745000,0.0324,0.013523,0.002678,0.000431,0.000588
9746000,0.0324,0.013523,0.002678,0.000431,0.000470
9747000,0.0324,0.013523,0.002678,0.000431,0.000588
9748000,0.0324,0.013523,0.002678,0.000431,0.000353
9749000,0.0324,0.013523,0.002678,0.000431,0.000588
9750000,0.0324,0.013523,0.002678,0.000431,0.000353
9751000,0.0324,0.013523,0.002678,0.000431,0.000588
9752000,0.0324,0.013523,0.002678,0.000431,0.000353
9753000,0.0324,0.013523,0.002678,0.000431,0.000588
9754000,0.0324,0.013523,0.002678,0.000431,0.000353
9755000,0.0324,0.013523,0.002678,0.000431,0.000588
9756000,0.0324,0.013523,0.002678,0.000431,0.000470
9757000,0.0324,0.013523,0.002678,0.000431,0.000470
9758000,0.0324,0.013523,0.002678,0.000431,0.000470
9759000,0.0324,0.013523,0.002678,0.000431,0.000470
9760000,0.0324,0.013523,0.002678,0.000431,0.000470
9761000,0.0324,0.013523,0.002678,0.000431,0.000470
9762000,0.0324,0.013523,0.002678,0.000431,0.000470
9763000,0.0324,0.013523,0.002678,0.000431,0.000353
9764000,0.0324,0.013523,0.002678,0.000431,0.000588
9765000,0.0324,0.013523,0.002678,0.000431,0.000353
9766000,0.0324,0.013523,0.002678,0.000431,0.000588
9767000,0.0324,0.013523,0.002678,0.000431,0.000353
9768000,0.0324,0.013523,0.002678,0.000431,0.000588
9769000,0.0324,0.013523,0.002678,0.000431,0.000353
9770000,0.0324,0.013523,0.002678,0.000431,0.000705
9771000,0.0324,0.013523,0.002678,0.000431,0.000353
9772000,0.0324,0.013523,0.002678,0.000431,0.000705
9773000,0.0324,0.013523,0.002678,0.000431,0.000588
9774000,0.0324,0.013523,0.002678,0.000431,0.000470
9775000,0.0324,0.013523,0.002678,0.000431,0.000588
9776000,0.0324,0.013523,0.002678,0.000431,0.000353
9777000,0.0324,0.013523,0.002678,0.000431,0.000470
9778000,0.0324,0.013523,0.002678,0.000431,0.000353
9779000,0.0324,0.013523,0.002678,0.000431,0.000588
9780000,0.0324,0.013523,0.002678,0.000431,0.000353
9781000,0.0324,0.013523,0.002678,0.000431,0.000823
9782000,0.0324,0.013523,0.002678,0.000431,0.000353
9783000,0.0324,0.013523,0.002678,0.000431,0.000588
9784000,0.0324,0.013523,0.002678,0.000431,0.000235
9785000,0.0324,0.013523,0.002678,0.000431,0.000823
9786000,0.0324,0.013523,0.002678,0.000431,0.000353
9787000,0.0324,0.013523,0.002678,0.000431,0.000588
9788000,0.0324,0.013523,0.002678,0.000431,0.000353
9789000,0.0324,0.013523,0.002678,0.000431,0.000588
9790000,0.0324,0.013523,0.002678,0.000431,0.000353
9791000,0.0324,0.013523,0.002678,0.000431,0.000705
9792000,0.0324,0.013523,0.002678,0.000431,0.000353
9793000,0.0324,0.013523,0.002678,0.000431,0.000705
9794000,0.0324,0.013523,0.002678,0.000431,0.000588
9795000,0.0324,0.013523,0.002678,0.000431,0.000470
9796000,0.0324,0.013523,0.002678,0.000431,0.000705
9797000,0.0324,0.013523,0.002678,0.000431,0.000353
9798000,0.0324,0.013523,0.002678,0.000431,0.000588
9799000,0.0324,0.013523,0.002678,0.000431,0.000353
9800000,0.0324,0.013523,0.002678,0.000431,0.000588
9801000,0.0324,0.013523,0.002678,0.000431,0.000353
9802000,0.0324,0.013523,0.002678,0.000431,0.000588
9803000,0.0324,0.013523,0.002678,0.000431,0.000353
9804000,0.0324,0.013523,0.002678,0.000431,0.000470
9805000,0.0324,0.013523,0.002678,0.000431,0.000470
9806000,0.0324,0.013523,0.002678,0.000431,0.000470
9807000,0.0324,0.013523,0.002678,0.000431,0.000470
9808000,0.0324,0.013523,0.002678,0.000431,0.000470
9809000,0.0324,0.013523,0.002678,0.000431,0.000470
9810000,0.0324,0.013523,0.002678,0.000431,0.000470
9811000,0.0324,0.013523,0.002678,0.000431,0.000470
9812000,0.0324,0.013523,0.002678,0.000431,0.000470
9813000,0.0324,0.013523,0.002678,0.000431,0.000353
9814000,0.0324,0.013523,0.002678,0.000431,0.000588
9815000,0.0324,0.013523,0.002678,0.000431,0.000470
9816000,0.0324,0.013523,0.002678,0.000431,0.000470
9817000,0.0324,0.013523,0.002678,0.000431,0.000470
9818000,0.0324,0.013523,0.002678,0.000431,0.000470
9819000,0.0324,0.013523,0.002678,0.000431,0.000470
9820000,0.0324,0.013523,0.002678,0.000431,0.000470
9821000,0.0324,0.013523,0.002678,0.000431,0.000470
9822000,0.0324,0.013523,0.002678,0.000431,0.000470
9823000,0.0324,0.013523,0.002678,0.000431,0.000353
9824000,0.0324,0.013523,0.002678,0.000431,0.000588
9825000,0.0324,0.013523,0.002678,0.000431,0.000353
9826000,0.0324,0.013523,0.002678,0.000431,0.000588
9827000,0.0324,0.013523,0.002678,0.000431,0.000470
9828000,0.0324,0.013523,0.002678,0.000431,0.000470
9829000,0.0324,0.013523,0.002678,0.000431,0.000470
9830000,0.0324,0.013523,0.002678,0.000431,0.000470
9831000,0.0324,0.013523,0.002678,0.000431,0.000470
9832000,0.0324,0.013523,0.002678,0.000431,0.000470
9833000,0.0324,0.013523,0.002678,0.000431,0.000470
9834000,0.0324,0.013523,0.002678,0.000431,0.000470
9835000,0.0324,0.013523,0.002678,0.000431,0.000470
9836000,0.0324,0.013523,0.002678,0.000431,0.000353
9837000,0.0324,0.013523,0.002678,0.000431,0.000588
9838000,0.0324,0.013523,0.002678,0.000431,0.000353
9839000,0.0324,0.013523,0.002678,0.000431,0.000588
9840000,0.0324,0.013523,0.002678,0.000431,0.000353
9841000,0.0324,0.013523,0.002678,0.000431,0.000588
9842000,0.0324,0.013523,0.002678,0.000431,0.000353
9843000,0.0324,0.013523,0.002678,0.000431,0.000588
9844000,0.0324,0.013523,0.002678,0.000431,0.000353
9845000,0.0324,0.013523,0.002678,0.000431,0.000588
9846000,0.0324,0.013523,0.002678,0.000431,0.000353
9847000,0.0324,0.013523,0.002678,0.000431,0.000588
9848000,0.0324,0.013523,0.002678,0.000431,0.000353
9849000,0.0324,0.013523,0.002678,0.000431,0.000588
9850000,0.0324,0.013523,0.002678,0.000431,0.000353
9851000,0.0324,0.013523,0.002678,0.000431,0.000588
9852000,0.0324,0.013523,0.002678,0.000431,0.000353
9853000,0.0324,0.013523,0.002678,0.000431,0.000588
9854000,0.0324,0.013523,0.002678,0.000431,0.000353
9855000,0.0324,0.013523,0.002678,0.000431,0.000588
9856000,0.0324,0.013523,0.002678,0.000431,0.000353
9857000,0.0324,0.013523,0.002678,0.000431,0.000588
9858000,0.0324,0.013523,0.002678,0.000431,0.000353
9859000,0.0324,0.013523,0.002678,0.000431,0.000588
9860000,0.0324,0.013523,0.002678,0.000431,0.000353
9861000,0.0324,0.013523,0.002678,0.000431,0.000588
9862000,0.0324,0.013523,0.002678,0.000431,0.000353
9863000,0.0324,0.013523,0.002678,0.000431,0.000470
9864000,0.0324,0.013523,0.002678,0.000431,0.000588
9865000,0.0324,0.013523,0.002678,0.000431,0.000588
9866000,0.0324,0.013523,0.002678,0.000431,0.000470
9867000,0.0324,0.013523,0.002678,0.000431,0.000588
9868000,0.0324,0.013523,0.002678,0.000431,0.000470
9869000,0.0324,0.013523,0.002678,0.000431,0.000470
9870000,0.0324,0.013523,0.002678,0.000431,0.000470
9871000,0.0324,0.013523,0.002678,0.000431,0.000470
9872000,0.0324,0.013523,0.002678,0.000431,0.000470
9873000,0.0324,0.013523,0.002678,0.000431,0.000470
9874000,0.0324,0.013523,0.002678,0.000431,0.000470
9875000,0.0324,0.013523,0.002678,0.000431,0.000470
9876000,0.0324,0.013523,0.002678,0.000431,0.000470
9877000,0.0324,0.013523,0.002678,0.000431,0.000470
9878000,0.0324,0.013523,0.002678,0.000431,0.000470
9879000,0.0324,0.013523,0.002678,0.000431,0.000588
9880000,0.0324,0.013523,0.002678,0.000431,0.000470
9881000,0.0324,0.013523,0.002678,0.000431,0.000705
9882000,0.0324,0.013523,0.002678,0.000431,0.000353
9883000,0.0324,0.013523,0.002678,0.000431,0.000588
9884000,0.0324,0.013523,0.002678,0.000431,0.000353
9885000,0.0324,0.013523,0.002678,0.000431,0.000705
9886000,0.0324,0.013523,0.002678,0.000431,0.000353
9887000,0.0324,0.013523,0.002678,0.000431,0.000588
9888000,0.0324,0.013523,0.002678,0.000431,0.000353
9889000,0.0324,0.013523,0.002678,0.000431,0.000470
9890000,0.0324,0.013523,0.002678,0.000431,0.000470
9891000,0.0324,0.013523,0.002678,0.000431,0.000470
9892000,0.0324,0.013523,0.002678,0.000431,0.000470
9893000,0.0324,0.013523,0.002678,0.000431,0.000353
9894000,0.0324,0.013523,0.002678,0.000431,0.000588
9895000,0.0324,0.013523,0.002678,0.000431,0.000353
9896000,0.0324,0.013523,0.002678,0.000431,0.000588
9897000,0.0324,0.013523,0.002678,0.000431,0.000353
9898000,0.0324,0.013523,0.002678,0.000431,0.000705
9899000,0.0324,0.013523,0.002678,0.000431,0.000470
9900000,0.0324,0.013523,0.002678,0.000431,0.000588
9901000,0.0324,0.013523,0.002678,0.000431,0.000353
9902000,0.0324,0.013523,0.002678,0.000431,0.000588
9903000,0.0324,0.013523,0.002678,0.000431,0.000353
9904000,0.0324,0.013523,0.002678,0.000431,0.000470
9905000,0.0324,0.013523,0.002678,0.000431,0.000470
9906000,0.0324,0.013523,0.002678,0.000431,0.000588
9907000,0.0324,0.013523,0.002678,0.000431,0.000353
9908000,0.0324,0.013523,0.002678,0.000431,0.000588
9909000,0.0324,0.013523,0.002678,0.000431,0.000353
9910000,0.0324,0.013523,0.002678,0.000431,0.000705
9911000,0.0324,0.013523,0.002678,0.000431,0.000353
9912000,0.0324,0.013523,0.002678,0.000431,0.000588
9913000,0.0324,0.013523,0.002678,0.000431,0.000235
9914000,0.0324,0.013523,0.002678,0.000431,0.000588
9915000,0.0324,0.013523,0.002678,0.000431,0.000353
9916000,0.0324,0.013523,0.002678,0.000431,0.000823
9917000,0.0324,0.013523,0.002678,0.000431,0.000353
9918000,0.0324,0.013523,0.002678,0.000431,0.000588
9919000,0.0324,0.013523,0.002678,0.000431,0.000470
9920000,0.0324,0.013523,0.002678,0.000431,0.000588
9921000,0.0324,0.013523,0.002678,0.000431,0.000353
9922000,0.0324,0.013523,0.002678,0.000431,0.000588
9923000,0.0324,0.013523,0.002678,0.000431,0.000353
9924000,0.0324,0.013523,0.002678,0.000431,0.000588
9925000,0.0324,0.013523,0.002678,0.000431,0.000353
9926000,0.0324,0.013523,0.002678,0.000431,0.000588
9927000,0.0324,0.013523,0.002678,0.000431,0.000353
9928000,0.0324,0.013523,0.002678,0.000431,0.000705
9929000,0.0324,0.013523,0.002678,0.000431,0.000353
9930000,0.0324,0.013523,0.002678,0.000431,0.000705
9931000,0.0324,0.013523,0.002678,0.000431,0.000470
9932000,0.0324,0.013523,0.002678,0.000431,0.000470
9933000,0.0324,0.013523,0.002678,0.000431,0.000470
9934000,0.0324,0.013523,0.002678,0.000431,0.000470
9935000,0.0324,0.013523,0.002678,0.000431,0.000470
9936000,0.0324,0.013523,0.002678,0.000431,0.000470
9937000,0.0324,0.013523,0.002678,0.000431,0.000470
9938000,0.0324,0.013523,0.002678,0.000431,0.000470
9939000,0.0324,0.013523,0.002678,0.000431,0.000470
9940000,0.0324,0.013523,0.002678,0.000431,0.000470
9941000,0.0324,0.013523,0.002678,0.000431,0.000470
9942000,0.0324,0.013523,0.002678,0.000431,0.000470
9943000,0.0324,0.013523,0.002678,0.000431,0.000470
9944000,0.0324,0.013523,0.002678,0.000431,0.000470
9945000,0.0324,0.013523,0.002678,0.000431,0.000353
9946000,0.0324,0.013523,0.002678,0.000431,0.000705
9947000,0.0324,0.013523,0.002678,0.000431,0.000353
9948000,0.0324,0.013523,0.002678,0.000431,0.000705
9949000,0.0324,0.013523,0.002678,0.000431,0.000470
9950000,0.0324,0.013523,0.002678,0.000431,0.000470
9951000,0.0324,0.013523,0.002678,0.000431,0.000470
9952000,0.0324,0.013523,0.002678,0.000431,0.000470
9953000,0.0324,0.013523,0.002678,0.000431,0.000470
9954000,0.0324,0.013523,0.002678,0.000431,0.000588
9955000,0.0324,0.013523,0.002678,0.000431,0.000353
9956000,0.0324,0.013523,0.002678,0.000431,0.000588
9957000,0.0324,0.013523,0.002678,0.000431,0.000353
9958000,0.0324,0.013523,0.002678,0.000431,0.000588
9959000,0.0324,0.013523,0.002678,0.000431,0.000353
9960000,0.0324,0.013523,0.002678,0.000431,0.000588
9961000,0.0324,0.013523,0.002678,0.000431,0.000353
9962000,0.0324,0.013523,0.002678,0.000431,0.000705
9963000,0.0324,0.013523,0.002678,0.000431,0.000588
9964000,0.0324,0.013523,0.002678,0.000431,0.000470
9965000,0.0324,0.013523,0.002678,0.000431,0.000588
9966000,0.0324,0.013523,0.002678,0.000431,0.000353
9967000,0.0324,0.013523,0.002678,0.000431,0.000470
9968000,0.0324,0.013523,0.002678,0.000431,0.000470
9969000,0.0324,0.013523,0.002678,0.000431,0.000470
9970000,0.0324,0.013523,0.002678,0.000431,0.000470
9971000,0.0324,0.013523,0.002678,0.000431,0.000353
9972000,0.0324,0.013523,0.002678,0.000431,0.000588
9973000,0.0324,0.013523,0.002678,0.000431,0.000353
9974000,0.0324,0.013523,0.002678,0.000431,0.000588
9975000,0.0324,0.013523,0.002678,0.000431,0.000353
9976000,0.0324,0.013523,0.002678,0.000431,0.000588
9977000,0.0324,0.013523,0.002678,0.000431,0.000353
9978000,0.0324,0.013523,0.002678,0.000431,0.000705
9979000,0.0324,0.013523,0.002678,0.000431,0.000588
9980000,0.0324,0.013523,0.002678,0.000431,0.000470
9981000,0.0324,0.013523,0.002678,0.000431,0.000705
9982000,0.0324,0.013523,0.002678,0.000431,0.000353
9983000,0.0324,0.013523,0.002678,0.000431,0.000588
9984000,0.0324,0.013523,0.002678,0.000431,0.000353
9985000,0.0324,0.013523,0.002678,0.000431,0.000588
9986000,0.0324,0.013523,0.002678,0.000431,0.000353
9987000,0.0324,0.013523,0.002678,0.000431,0.000588
9988000,0.0324,0.013523,0.002678,0.000431,0.000588
9989000,0.0324,0.013523,0.002678,0.000431,0.000470
9990000,0.0324,0.013523,0.002678,0.000431,0.000353
9991000,0.0324,0.013523,0.002678,0.000431,0.000588
9992000,0.0324,0.013523,0.002678,0.000431,0.000353
9993000,0.0324,0.013523,0.002678,0.000431,0.000470
9994000,0.0324,0.013523,0.002678,0.000431,0.000353
9995000,0.0324,0.013523,0.002678,0.000431,0.000588
9996000,0.0324,0.013523,0.002678,0.000431,0.000470
9997000,0.0324,0.013523,0.002678,0.000431,0.000588
9998000,0.0324,0.013523,0.002678,0.000431,0.000353
9999000,0.0324,0.013523,0.002678,0.000431,0.000588
