Cycle,Area(mm^2),PeakDynamic(W),SubthresholdLeakage(W),GateLeakage(W),RunTimeDynamic(W)
9000000,0.0324,0.013523,0.002678,0.000431,0.009520
9001000,0.0324,0.013523,0.002678,0.000431,0.008462
9002000,0.0324,0.013523,0.002678,0.000431,0.009637
9003000,0.0324,0.013523,0.002678,0.000431,0.007404
9004000,0.0324,0.013523,0.002678,0.000431,0.009990
9005000,0.0324,0.013523,0.002678,0.000431,0.007992
9006000,0.0324,0.013523,0.002678,0.000431,0.009637
9007000,0.0324,0.013523,0.002678,0.000431,0.008345
9008000,0.0324,0.013523,0.002678,0.000431,0.009050
9009000,0.0324,0.013523,0.002678,0.000431,0.007992
9010000,0.0324,0.013523,0.002678,0.000431,0.009637
9011000,0.0324,0.013523,0.002678,0.000431,0.009520
9012000,0.0324,0.013523,0.002678,0.000431,0.008580
9013000,0.0324,0.013523,0.002678,0.000431,0.008227
9014000,0.0324,0.013523,0.002678,0.000431,0.010460
9015000,0.0324,0.013523,0.002678,0.000431,0.008227
9016000,0.0324,0.013523,0.002678,0.000431,0.008345
9017000,0.0324,0.013523,0.002678,0.000431,0.008932
9018000,0.0324,0.013523,0.002678,0.000431,0.008932
9019000,0.0324,0.013523,0.002678,0.000431,0.008932
9020000,0.0324,0.013523,0.002678,0.000431,0.007992
9021000,0.0324,0.013523,0.002678,0.000431,0.009050
9022000,0.0324,0.013523,0.002678,0.000431,0.008697
9023000,0.0324,0.013523,0.002678,0.000431,0.008932
9024000,0.0324,0.013523,0.002678,0.000431,0.008462
9025000,0.0324,0.013523,0.002678,0.000431,0.009520
9026000,0.0324,0.013523,0.002678,0.000431,0.008227
9027000,0.0324,0.013523,0.002678,0.000431,0.009285
9028000,0.0324,0.013523,0.002678,0.000431,0.008580
9029000,0.0324,0.013523,0.002678,0.000431,0.008580
9030000,0.0324,0.013523,0.002678,0.000431,0.009050
9031000,0.0324,0.013523,0.002678,0.000431,0.008932
9032000,0.0324,0.013523,0.002678,0.000431,0.009402
9033000,0.0324,0.013523,0.002678,0.000431,0.008345
9034000,0.0324,0.013523,0.002678,0.000431,0.009990
9035000,0.0324,0.013523,0.002678,0.000431,0.007992
9036000,0.0324,0.013523,0.002678,0.000431,0.008580
9037000,0.0324,0.013523,0.002678,0.000431,0.008580
9038000,0.0324,0.013523,0.002678,0.000431,0.009050
9039000,0.0324,0.013523,0.002678,0.000431,0.008462
9040000,0.0324,0.013523,0.002678,0.000431,0.009167
9041000,0.0324,0.013523,0.002678,0.000431,0.008462
9042000,0.0324,0.013523,0.002678,0.000431,0.010107
9043000,0.0324,0.013523,0.002678,0.000431,0.007992
9044000,0.0324,0.013523,0.002678,0.000431,0.008697
9045000,0.0324,0.013523,0.002678,0.000431,0.009167
9046000,0.0324,0.013523,0.002678,0.000431,0.009167
9047000,0.0324,0.013523,0.002678,0.000431,0.008580
9048000,0.0324,0.013523,0.002678,0.000431,0.009050
9049000,0.0324,0.013523,0.002678,0.000431,0.008932
9050000,0.0324,0.013523,0.002678,0.000431,0.009050
9051000,0.0324,0.013523,0.002678,0.000431,0.008227
9052000,0.0324,0.013523,0.002678,0.000431,0.009050
9053000,0.0324,0.013523,0.002678,0.000431,0.008462
9054000,0.0324,0.013523,0.002678,0.000431,0.009050
9055000,0.0324,0.013523,0.002678,0.000431,0.008932
9056000,0.0324,0.013523,0.002678,0.000431,0.010107
9057000,0.0324,0.013523,0.002678,0.000431,0.006934
9058000,0.0324,0.013523,0.002678,0.000431,0.008932
9059000,0.0324,0.013523,0.002678,0.000431,0.008109
9060000,0.0324,0.013523,0.002678,0.000431,0.007522
9061000,0.0324,0.013523,0.002678,0.000431,0.007639
9062000,0.0324,0.013523,0.002678,0.000431,0.009637
9063000,0.0324,0.013523,0.002678,0.000431,0.007287
9064000,0.0324,0.013523,0.002678,0.000431,0.007757
9065000,0.0324,0.013523,0.002678,0.000431,0.008932
9066000,0.0324,0.013523,0.002678,0.000431,0.007757
9067000,0.0324,0.013523,0.002678,0.000431,0.007874
9068000,0.0324,0.013523,0.002678,0.000431,0.008227
9069000,0.0324,0.013523,0.002678,0.000431,0.008345
9070000,0.0324,0.013523,0.002678,0.000431,0.007992
9071000,0.0324,0.013523,0.002678,0.000431,0.008109
9072000,0.0324,0.013523,0.002678,0.000431,0.008345
9073000,0.0324,0.013523,0.002678,0.000431,0.008345
9074000,0.0324,0.013523,0.002678,0.000431,0.007639
9075000,0.0324,0.013523,0.002678,0.000431,0.009050
9076000,0.0324,0.013523,0.002678,0.000431,0.007404
9077000,0.0324,0.013523,0.002678,0.000431,0.007874
9078000,0.0324,0.013523,0.002678,0.000431,0.008345
9079000,0.0324,0.013523,0.002678,0.000431,0.008462
9080000,0.0324,0.013523,0.002678,0.000431,0.007287
9081000,0.0324,0.013523,0.002678,0.000431,0.007522
9082000,0.0324,0.013523,0.002678,0.000431,0.008815
9083000,0.0324,0.013523,0.002678,0.000431,0.007522
9084000,0.0324,0.013523,0.002678,0.000431,0.007757
9085000,0.0324,0.013523,0.002678,0.000431,0.007522
9086000,0.0324,0.013523,0.002678,0.000431,0.008345
9087000,0.0324,0.013523,0.002678,0.000431,0.006699
9088000,0.0324,0.013523,0.002678,0.000431,0.007404
9089000,0.0324,0.013523,0.002678,0.000431,0.007992
9090000,0.0324,0.013523,0.002678,0.000431,0.008109
9091000,0.0324,0.013523,0.002678,0.000431,0.007639
9092000,0.0324,0.013523,0.002678,0.000431,0.007287
9093000,0.0324,0.013523,0.002678,0.000431,0.007992
9094000,0.0324,0.013523,0.002678,0.000431,0.007757
9095000,0.0324,0.013523,0.002678,0.000431,0.007287
9096000,0.0324,0.013523,0.002678,0.000431,0.007639
9097000,0.0324,0.013523,0.002678,0.000431,0.008227
9098000,0.0324,0.013523,0.002678,0.000431,0.007639
9099000,0.0324,0.013523,0.002678,0.000431,0.007757
9100000,0.0324,0.013523,0.002678,0.000431,0.007287
9101000,0.0324,0.013523,0.002678,0.000431,0.007287
9102000,0.0324,0.013523,0.002678,0.000431,0.008345
9103000,0.0324,0.013523,0.002678,0.000431,0.007874
9104000,0.0324,0.013523,0.002678,0.000431,0.007404
9105000,0.0324,0.013523,0.002678,0.000431,0.007169
9106000,0.0324,0.013523,0.002678,0.000431,0.008580
9107000,0.0324,0.013523,0.002678,0.000431,0.007639
9108000,0.0324,0.013523,0.002678,0.000431,0.007052
9109000,0.0324,0.013523,0.002678,0.000431,0.008227
9110000,0.0324,0.013523,0.002678,0.000431,0.008462
9111000,0.0324,0.013523,0.002678,0.000431,0.007052
9112000,0.0324,0.013523,0.002678,0.000431,0.008462
9113000,0.0324,0.013523,0.002678,0.000431,0.008580
9114000,0.0324,0.013523,0.002678,0.000431,0.007874
9115000,0.0324,0.013523,0.002678,0.000431,0.007874
9116000,0.0324,0.013523,0.002678,0.000431,0.007757
9117000,0.0324,0.013523,0.002678,0.000431,0.007639
9118000,0.0324,0.013523,0.002678,0.000431,0.007639
9119000,0.0324,0.013523,0.002678,0.000431,0.007992
9120000,0.0324,0.013523,0.002678,0.000431,0.008345
9121000,0.0324,0.013523,0.002678,0.000431,0.007992
9122000,0.0324,0.013523,0.002678,0.000431,0.007169
9123000,0.0324,0.013523,0.002678,0.000431,0.008580
9124000,0.0324,0.013523,0.002678,0.000431,0.007287
9125000,0.0324,0.013523,0.002678,0.000431,0.007757
9126000,0.0324,0.013523,0.002678,0.000431,0.007874
9127000,0.0324,0.013523,0.002678,0.000431,0.008345
9128000,0.0324,0.013523,0.002678,0.000431,0.006817
9129000,0.0324,0.013523,0.002678,0.000431,0.007874
9130000,0.0324,0.013523,0.002678,0.000431,0.008580
9131000,0.0324,0.013523,0.002678,0.000431,0.008109
9132000,0.0324,0.013523,0.002678,0.000431,0.007639
9133000,0.0324,0.013523,0.002678,0.000431,0.007992
9134000,0.0324,0.013523,0.002678,0.000431,0.008109
9135000,0.0324,0.013523,0.002678,0.000431,0.007287
9136000,0.0324,0.013523,0.002678,0.000431,0.007874
9137000,0.0324,0.013523,0.002678,0.000431,0.008227
9138000,0.0324,0.013523,0.002678,0.000431,0.007639
9139000,0.0324,0.013523,0.002678,0.000431,0.008580
9140000,0.0324,0.013523,0.002678,0.000431,0.007522
9141000,0.0324,0.013523,0.002678,0.000431,0.007169
9142000,0.0324,0.013523,0.002678,0.000431,0.008109
9143000,0.0324,0.013523,0.002678,0.000431,0.008109
9144000,0.0324,0.013523,0.002678,0.000431,0.007874
9145000,0.0324,0.013523,0.002678,0.000431,0.007639
9146000,0.0324,0.013523,0.002678,0.000431,0.007992
9147000,0.0324,0.013523,0.002678,0.000431,0.008345
9148000,0.0324,0.013523,0.002678,0.000431,0.007874
9149000,0.0324,0.013523,0.002678,0.000431,0.007522
9150000,0.0324,0.013523,0.002678,0.000431,0.008227
9151000,0.0324,0.013523,0.002678,0.000431,0.008109
9152000,0.0324,0.013523,0.002678,0.000431,0.007639
9153000,0.0324,0.013523,0.002678,0.000431,0.007639
9154000,0.0324,0.013523,0.002678,0.000431,0.008109
9155000,0.0324,0.013523,0.002678,0.000431,0.008345
9156000,0.0324,0.013523,0.002678,0.000431,0.007639
9157000,0.0324,0.013523,0.002678,0.000431,0.007639
9158000,0.0324,0.013523,0.002678,0.000431,0.008462
9159000,0.0324,0.013523,0.002678,0.000431,0.007522
9160000,0.0324,0.013523,0.002678,0.000431,0.007874
9161000,0.0324,0.013523,0.002678,0.000431,0.008227
9162000,0.0324,0.013523,0.002678,0.000431,0.007522
9163000,0.0324,0.013523,0.002678,0.000431,0.007992
9164000,0.0324,0.013523,0.002678,0.000431,0.007874
9165000,0.0324,0.013523,0.002678,0.000431,0.008345
9166000,0.0324,0.013523,0.002678,0.000431,0.007169
9167000,0.0324,0.013523,0.002678,0.000431,0.008109
9168000,0.0324,0.013523,0.002678,0.000431,0.006934
9169000,0.0324,0.013523,0.002678,0.000431,0.007639
9170000,0.0324,0.013523,0.002678,0.000431,0.006699
9171000,0.0324,0.013523,0.002678,0.000431,0.008109
9172000,0.0324,0.013523,0.002678,0.000431,0.007404
9173000,0.0324,0.013523,0.002678,0.000431,0.006582
9174000,0.0324,0.013523,0.002678,0.000431,0.007287
9175000,0.0324,0.013523,0.002678,0.000431,0.008345
9176000,0.0324,0.013523,0.002678,0.000431,0.006699
9177000,0.0324,0.013523,0.002678,0.000431,0.007404
9178000,0.0324,0.013523,0.002678,0.000431,0.007874
9179000,0.0324,0.013523,0.002678,0.000431,0.007874
9180000,0.0324,0.013523,0.002678,0.000431,0.006464
9181000,0.0324,0.013523,0.002678,0.000431,0.007757
9182000,0.0324,0.013523,0.002678,0.000431,0.007522
9183000,0.0324,0.013523,0.002678,0.000431,0.007287
9184000,0.0324,0.013523,0.002678,0.000431,0.006699
9185000,0.0324,0.013523,0.002678,0.000431,0.007992
9186000,0.0324,0.013523,0.002678,0.000431,0.005876
9187000,0.0324,0.013523,0.002678,0.000431,0.007522
9188000,0.0324,0.013523,0.002678,0.000431,0.007757
9189000,0.0324,0.013523,0.002678,0.000431,0.007404
9190000,0.0324,0.013523,0.002678,0.000431,0.006582
9191000,0.0324,0.013523,0.002678,0.000431,0.007874
9192000,0.0324,0.013523,0.002678,0.000431,0.007522
9193000,0.0324,0.013523,0.002678,0.000431,0.007169
9194000,0.0324,0.013523,0.002678,0.000431,0.006934
9195000,0.0324,0.013523,0.002678,0.000431,0.008109
9196000,0.0324,0.013523,0.002678,0.000431,0.007169
9197000,0.0324,0.013523,0.002678,0.000431,0.006817
9198000,0.0324,0.013523,0.002678,0.000431,0.007522
9199000,0.0324,0.013523,0.002678,0.000431,0.008227
9200000,0.0324,0.013523,0.002678,0.000431,0.007169
9201000,0.0324,0.013523,0.002678,0.000431,0.006934
9202000,0.0324,0.013523,0.002678,0.000431,0.007757
9203000,0.0324,0.013523,0.002678,0.000431,0.006934
9204000,0.0324,0.013523,0.002678,0.000431,0.007287
9205000,0.0324,0.013523,0.002678,0.000431,0.007757
9206000,0.0324,0.013523,0.002678,0.000431,0.007639
9207000,0.0324,0.013523,0.002678,0.000431,0.006934
9208000,0.0324,0.013523,0.002678,0.000431,0.006817
9209000,0.0324,0.013523,0.002678,0.000431,0.008227
9210000,0.0324,0.013523,0.002678,0.000431,0.007052
9211000,0.0324,0.013523,0.002678,0.000431,0.007169
9212000,0.0324,0.013523,0.002678,0.000431,0.007639
9213000,0.0324,0.013523,0.002678,0.000431,0.008815
9214000,0.0324,0.013523,0.002678,0.000431,0.006229
9215000,0.0324,0.013523,0.002678,0.000431,0.007522
9216000,0.0324,0.013523,0.002678,0.000431,0.007287
9217000,0.0324,0.013523,0.002678,0.000431,0.006347
9218000,0.0324,0.013523,0.002678,0.000431,0.006699
9219000,0.0324,0.013523,0.002678,0.000431,0.007874
9220000,0.0324,0.013523,0.002678,0.000431,0.006699
9221000,0.0324,0.013523,0.002678,0.000431,0.006464
9222000,0.0324,0.013523,0.002678,0.000431,0.007522
9223000,0.0324,0.013523,0.002678,0.000431,0.007874
9224000,0.0324,0.013523,0.002678,0.000431,0.006464
9225000,0.0324,0.013523,0.002678,0.000431,0.007169
9226000,0.0324,0.013523,0.002678,0.000431,0.007404
9227000,0.0324,0.013523,0.002678,0.000431,0.007052
9228000,0.0324,0.013523,0.002678,0.000431,0.006347
9229000,0.0324,0.013523,0.002678,0.000431,0.007992
9230000,0.0324,0.013523,0.002678,0.000431,0.006934
9231000,0.0324,0.013523,0.002678,0.000431,0.005641
9232000,0.0324,0.013523,0.002678,0.000431,0.007757
9233000,0.0324,0.013523,0.002678,0.000431,0.007169
9234000,0.0324,0.013523,0.002678,0.000431,0.007404
9235000,0.0324,0.013523,0.002678,0.000431,0.007169
9236000,0.0324,0.013523,0.002678,0.000431,0.007757
9237000,0.0324,0.013523,0.002678,0.000431,0.006817
9238000,0.0324,0.013523,0.002678,0.000431,0.006817
9239000,0.0324,0.013523,0.002678,0.000431,0.006817
9240000,0.0324,0.013523,0.002678,0.000431,0.008345
9241000,0.0324,0.013523,0.002678,0.000431,0.006582
9242000,0.0324,0.013523,0.002678,0.000431,0.007052
9243000,0.0324,0.013523,0.002678,0.000431,0.007522
9244000,0.0324,0.013523,0.002678,0.000431,0.006699
9245000,0.0324,0.013523,0.002678,0.000431,0.006229
9246000,0.0324,0.013523,0.002678,0.000431,0.007639
9247000,0.0324,0.013523,0.002678,0.000431,0.006934
9248000,0.0324,0.013523,0.002678,0.000431,0.006111
9249000,0.0324,0.013523,0.002678,0.000431,0.006817
9250000,0.0324,0.013523,0.002678,0.000431,0.007757
9251000,0.0324,0.013523,0.002678,0.000431,0.006464
9252000,0.0324,0.013523,0.002678,0.000431,0.006817
9253000,0.0324,0.013523,0.002678,0.000431,0.007404
9254000,0.0324,0.013523,0.002678,0.000431,0.006347
9255000,0.0324,0.013523,0.002678,0.000431,0.006817
9256000,0.0324,0.013523,0.002678,0.000431,0.007522
9257000,0.0324,0.013523,0.002678,0.000431,0.007404
9258000,0.0324,0.013523,0.002678,0.000431,0.006582
9259000,0.0324,0.013523,0.002678,0.000431,0.006934
9260000,0.0324,0.013523,0.002678,0.000431,0.007522
9261000,0.0324,0.013523,0.002678,0.000431,0.007052
9262000,0.0324,0.013523,0.002678,0.000431,0.006229
9263000,0.0324,0.013523,0.002678,0.000431,0.007874
9264000,0.0324,0.013523,0.002678,0.000431,0.006582
9265000,0.0324,0.013523,0.002678,0.000431,0.007404
9266000,0.0324,0.013523,0.002678,0.000431,0.006934
9267000,0.0324,0.013523,0.002678,0.000431,0.007522
9268000,0.0324,0.013523,0.002678,0.000431,0.006582
9269000,0.0324,0.013523,0.002678,0.000431,0.007287
9270000,0.0324,0.013523,0.002678,0.000431,0.007169
9271000,0.0324,0.013523,0.002678,0.000431,0.007522
9272000,0.0324,0.013523,0.002678,0.000431,0.006464
9273000,0.0324,0.013523,0.002678,0.000431,0.007639
9274000,0.0324,0.013523,0.002678,0.000431,0.007287
9275000,0.0324,0.013523,0.002678,0.000431,0.007052
9276000,0.0324,0.013523,0.002678,0.000431,0.006699
9277000,0.0324,0.013523,0.002678,0.000431,0.007639
9278000,0.0324,0.013523,0.002678,0.000431,0.006464
9279000,0.0324,0.013523,0.002678,0.000431,0.006934
9280000,0.0324,0.013523,0.002678,0.000431,0.007522
9281000,0.0324,0.013523,0.002678,0.000431,0.006582
9282000,0.0324,0.013523,0.002678,0.000431,0.006111
9283000,0.0324,0.013523,0.002678,0.000431,0.006464
9284000,0.0324,0.013523,0.002678,0.000431,0.007169
9285000,0.0324,0.013523,0.002678,0.000431,0.006229
9286000,0.0324,0.013523,0.002678,0.000431,0.006111
9287000,0.0324,0.013523,0.002678,0.000431,0.007522
9288000,0.0324,0.013523,0.002678,0.000431,0.006229
9289000,0.0324,0.013523,0.002678,0.000431,0.006229
9290000,0.0324,0.013523,0.002678,0.000431,0.007404
9291000,0.0324,0.013523,0.002678,0.000431,0.006464
9292000,0.0324,0.013523,0.002678,0.000431,0.006229
9293000,0.0324,0.013523,0.002678,0.000431,0.006582
9294000,0.0324,0.013523,0.002678,0.000431,0.007287
9295000,0.0324,0.013523,0.002678,0.000431,0.006347
9296000,0.0324,0.013523,0.002678,0.000431,0.006111
9297000,0.0324,0.013523,0.002678,0.000431,0.006699
9298000,0.0324,0.013523,0.002678,0.000431,0.006934
9299000,0.0324,0.013523,0.002678,0.000431,0.006229
9300000,0.0324,0.013523,0.002678,0.000431,0.006347
9301000,0.0324,0.013523,0.002678,0.000431,0.007287
9302000,0.0324,0.013523,0.002678,0.000431,0.006111
9303000,0.0324,0.013523,0.002678,0.000431,0.006229
9304000,0.0324,0.013523,0.002678,0.000431,0.007404
9305000,0.0324,0.013523,0.002678,0.000431,0.005994
9306000,0.0324,0.013523,0.002678,0.000431,0.005994
9307000,0.0324,0.013523,0.002678,0.000431,0.007052
9308000,0.0324,0.013523,0.002678,0.000431,0.006934
9309000,0.0324,0.013523,0.002678,0.000431,0.005641
9310000,0.0324,0.013523,0.002678,0.000431,0.007169
9311000,0.0324,0.013523,0.002678,0.000431,0.007287
9312000,0.0324,0.013523,0.002678,0.000431,0.006464
9313000,0.0324,0.013523,0.002678,0.000431,0.005876
9314000,0.0324,0.013523,0.002678,0.000431,0.007287
9315000,0.0324,0.013523,0.002678,0.000431,0.006347
9316000,0.0324,0.013523,0.002678,0.000431,0.006582
9317000,0.0324,0.013523,0.002678,0.000431,0.006464
9318000,0.0324,0.013523,0.002678,0.000431,0.007404
9319000,0.0324,0.013523,0.002678,0.000431,0.005876
9320000,0.0324,0.013523,0.002678,0.000431,0.006699
9321000,0.0324,0.013523,0.002678,0.000431,0.007287
9322000,0.0324,0.013523,0.002678,0.000431,0.006582
9323000,0.0324,0.013523,0.002678,0.000431,0.006229
9324000,0.0324,0.013523,0.002678,0.000431,0.007287
9325000,0.0324,0.013523,0.002678,0.000431,0.006699
9326000,0.0324,0.013523,0.002678,0.000431,0.006347
9327000,0.0324,0.013523,0.002678,0.000431,0.006699
9328000,0.0324,0.013523,0.002678,0.000431,0.007992
9329000,0.0324,0.013523,0.002678,0.000431,0.005759
9330000,0.0324,0.013523,0.002678,0.000431,0.005876
9331000,0.0324,0.013523,0.002678,0.000431,0.006229
9332000,0.0324,0.013523,0.002678,0.000431,0.005641
9333000,0.0324,0.013523,0.002678,0.000431,0.005641
9334000,0.0324,0.013523,0.002678,0.000431,0.006229
9335000,0.0324,0.013523,0.002678,0.000431,0.006229
9336000,0.0324,0.013523,0.002678,0.000431,0.005171
9337000,0.0324,0.013523,0.002678,0.000431,0.006111
9338000,0.0324,0.013523,0.002678,0.000431,0.005994
9339000,0.0324,0.013523,0.002678,0.000431,0.005994
9340000,0.0324,0.013523,0.002678,0.000431,0.005289
9341000,0.0324,0.013523,0.002678,0.000431,0.006229
9342000,0.0324,0.013523,0.002678,0.000431,0.005524
9343000,0.0324,0.013523,0.002678,0.000431,0.005641
9344000,0.0324,0.013523,0.002678,0.000431,0.006111
9345000,0.0324,0.013523,0.002678,0.000431,0.005876
9346000,0.0324,0.013523,0.002678,0.000431,0.005876
9347000,0.0324,0.013523,0.002678,0.000431,0.005759
9348000,0.0324,0.013523,0.002678,0.000431,0.005406
9349000,0.0324,0.013523,0.002678,0.000431,0.006229
9350000,0.0324,0.013523,0.002678,0.000431,0.005641
9351000,0.0324,0.013523,0.002678,0.000431,0.005759
9352000,0.0324,0.013523,0.002678,0.000431,0.006347
9353000,0.0324,0.013523,0.002678,0.000431,0.005641
9354000,0.0324,0.013523,0.002678,0.000431,0.005524
9355000,0.0324,0.013523,0.002678,0.000431,0.006347
9356000,0.0324,0.013523,0.002678,0.000431,0.005759
9357000,0.0324,0.013523,0.002678,0.000431,0.005994
9358000,0.0324,0.013523,0.002678,0.000431,0.005524
9359000,0.0324,0.013523,0.002678,0.000431,0.005876
9360000,0.0324,0.013523,0.002678,0.000431,0.005524
9361000,0.0324,0.013523,0.002678,0.000431,0.005759
9362000,0.0324,0.013523,0.002678,0.000431,0.005876
9363000,0.0324,0.013523,0.002678,0.000431,0.006111
9364000,0.0324,0.013523,0.002678,0.000431,0.005054
9365000,0.0324,0.013523,0.002678,0.000431,0.005994
9366000,0.0324,0.013523,0.002678,0.000431,0.006111
9367000,0.0324,0.013523,0.002678,0.000431,0.005759
9368000,0.0324,0.013523,0.002678,0.000431,0.005289
9369000,0.0324,0.013523,0.002678,0.000431,0.006464
9370000,0.0324,0.013523,0.002678,0.000431,0.005524
9371000,0.0324,0.013523,0.002678,0.000431,0.005406
9372000,0.0324,0.013523,0.002678,0.000431,0.005759
9373000,0.0324,0.013523,0.002678,0.000431,0.006464
9374000,0.0324,0.013523,0.002678,0.000431,0.005406
9375000,0.0324,0.013523,0.002678,0.000431,0.005994
9376000,0.0324,0.013523,0.002678,0.000431,0.006229
9377000,0.0324,0.013523,0.002678,0.000431,0.005759
9378000,0.0324,0.013523,0.002678,0.000431,0.005171
9379000,0.0324,0.013523,0.002678,0.000431,0.006699
9380000,0.0324,0.013523,0.002678,0.000431,0.005994
9381000,0.0324,0.013523,0.002678,0.000431,0.005171
9382000,0.0324,0.013523,0.002678,0.000431,0.006229
9383000,0.0324,0.013523,0.002678,0.000431,0.005641
9384000,0.0324,0.013523,0.002678,0.000431,0.006111
9385000,0.0324,0.013523,0.002678,0.000431,0.005641
9386000,0.0324,0.013523,0.002678,0.000431,0.005524
9387000,0.0324,0.013523,0.002678,0.000431,0.005994
9388000,0.0324,0.013523,0.002678,0.000431,0.005289
9389000,0.0324,0.013523,0.002678,0.000431,0.005876
9390000,0.0324,0.013523,0.002678,0.000431,0.006464
9391000,0.0324,0.013523,0.002678,0.000431,0.005054
9392000,0.0324,0.013523,0.002678,0.000431,0.006347
9393000,0.0324,0.013523,0.002678,0.000431,0.005759
9394000,0.0324,0.013523,0.002678,0.000431,0.005641
9395000,0.0324,0.013523,0.002678,0.000431,0.005171
9396000,0.0324,0.013523,0.002678,0.000431,0.006699
9397000,0.0324,0.013523,0.002678,0.000431,0.005524
9398000,0.0324,0.013523,0.002678,0.000431,0.006111
9399000,0.0324,0.013523,0.002678,0.000431,0.005876
9400000,0.0324,0.013523,0.002678,0.000431,0.005994
9401000,0.0324,0.013523,0.002678,0.000431,0.005759
9402000,0.0324,0.013523,0.002678,0.000431,0.005876
9403000,0.0324,0.013523,0.002678,0.000431,0.006111
9404000,0.0324,0.013523,0.002678,0.000431,0.005759
9405000,0.0324,0.013523,0.002678,0.000431,0.005054
9406000,0.0324,0.013523,0.002678,0.000431,0.006347
9407000,0.0324,0.013523,0.002678,0.000431,0.006229
9408000,0.0324,0.013523,0.002678,0.000431,0.005171
9409000,0.0324,0.013523,0.002678,0.000431,0.006111
9410000,0.0324,0.013523,0.002678,0.000431,0.005759
9411000,0.0324,0.013523,0.002678,0.000431,0.005054
9412000,0.0324,0.013523,0.002678,0.000431,0.005876
9413000,0.0324,0.013523,0.002678,0.000431,0.006347
9414000,0.0324,0.013523,0.002678,0.000431,0.005054
9415000,0.0324,0.013523,0.002678,0.000431,0.006229
9416000,0.0324,0.013523,0.002678,0.000431,0.005876
9417000,0.0324,0.013523,0.002678,0.000431,0.005876
9418000,0.0324,0.013523,0.002678,0.000431,0.005406
9419000,0.0324,0.013523,0.002678,0.000431,0.006347
9420000,0.0324,0.013523,0.002678,0.000431,0.005994
9421000,0.0324,0.013523,0.002678,0.000431,0.005524
9422000,0.0324,0.013523,0.002678,0.000431,0.005406
9423000,0.0324,0.013523,0.002678,0.000431,0.006111
9424000,0.0324,0.013523,0.002678,0.000431,0.005759
9425000,0.0324,0.013523,0.002678,0.000431,0.005759
9426000,0.0324,0.013523,0.002678,0.000431,0.006229
9427000,0.0324,0.013523,0.002678,0.000431,0.006464
9428000,0.0324,0.013523,0.002678,0.000431,0.005054
9429000,0.0324,0.013523,0.002678,0.000431,0.006111
9430000,0.0324,0.013523,0.002678,0.000431,0.005876
9431000,0.0324,0.013523,0.002678,0.000431,0.005876
9432000,0.0324,0.013523,0.002678,0.000431,0.005641
9433000,0.0324,0.013523,0.002678,0.000431,0.005759
9434000,0.0324,0.013523,0.002678,0.000431,0.005876
9435000,0.0324,0.013523,0.002678,0.000431,0.005524
9436000,0.0324,0.013523,0.002678,0.000431,0.005759
9437000,0.0324,0.013523,0.002678,0.000431,0.005876
9438000,0.0324,0.013523,0.002678,0.000431,0.005524
9439000,0.0324,0.013523,0.002678,0.000431,0.005641
9440000,0.0324,0.013523,0.002678,0.000431,0.005994
9441000,0.0324,0.013523,0.002678,0.000431,0.005994
9442000,0.0324,0.013523,0.002678,0.000431,0.005641
9443000,0.0324,0.013523,0.002678,0.000431,0.005876
9444000,0.0324,0.013523,0.002678,0.000431,0.006229
9445000,0.0324,0.013523,0.002678,0.000431,0.005759
9446000,0.0324,0.013523,0.002678,0.000431,0.005759
9447000,0.0324,0.013523,0.002678,0.000431,0.006111
9448000,0.0324,0.013523,0.002678,0.000431,0.005876
9449000,0.0324,0.013523,0.002678,0.000431,0.005289
9450000,0.0324,0.013523,0.002678,0.000431,0.005994
9451000,0.0324,0.013523,0.002678,0.000431,0.006111
9452000,0.0324,0.013523,0.002678,0.000431,0.005406
9453000,0.0324,0.013523,0.002678,0.000431,0.005994
9454000,0.0324,0.013523,0.002678,0.000431,0.005641
9455000,0.0324,0.013523,0.002678,0.000431,0.005759
9456000,0.0324,0.013523,0.002678,0.000431,0.005994
9457000,0.0324,0.013523,0.002678,0.000431,0.005994
9458000,0.0324,0.013523,0.002678,0.000431,0.005994
9459000,0.0324,0.013523,0.002678,0.000431,0.005759
9460000,0.0324,0.013523,0.002678,0.000431,0.005524
9461000,0.0324,0.013523,0.002678,0.000431,0.005994
9462000,0.0324,0.013523,0.002678,0.000431,0.005994
9463000,0.0324,0.013523,0.002678,0.000431,0.005524
9464000,0.0324,0.013523,0.002678,0.000431,0.006582
9465000,0.0324,0.013523,0.002678,0.000431,0.005171
9466000,0.0324,0.013523,0.002678,0.000431,0.005876
9467000,0.0324,0.013523,0.002678,0.000431,0.005641
9468000,0.0324,0.013523,0.002678,0.000431,0.005876
9469000,0.0324,0.013523,0.002678,0.000431,0.005641
9470000,0.0324,0.013523,0.002678,0.000431,0.005524
9471000,0.0324,0.013523,0.002678,0.000431,0.005876
9472000,0.0324,0.013523,0.002678,0.000431,0.005641
9473000,0.0324,0.013523,0.002678,0.000431,0.005759
9474000,0.0324,0.013523,0.002678,0.000431,0.005876
9475000,0.0324,0.013523,0.002678,0.000431,0.005641
9476000,0.0324,0.013523,0.002678,0.000431,0.005641
9477000,0.0324,0.013523,0.002678,0.000431,0.005759
9478000,0.0324,0.013523,0.002678,0.000431,0.005876
9479000,0.0324,0.013523,0.002678,0.000431,0.005171
9480000,0.0324,0.013523,0.002678,0.000431,0.006347
9481000,0.0324,0.013523,0.002678,0.000431,0.005054
9482000,0.0324,0.013523,0.002678,0.000431,0.006229
9483000,0.0324,0.013523,0.002678,0.000431,0.005406
9484000,0.0324,0.013523,0.002678,0.000431,0.005994
9485000,0.0324,0.013523,0.002678,0.000431,0.005171
9486000,0.0324,0.013523,0.002678,0.000431,0.006111
9487000,0.0324,0.013523,0.002678,0.000431,0.005876
9488000,0.0324,0.013523,0.002678,0.000431,0.005876
9489000,0.0324,0.013523,0.002678,0.000431,0.006111
9490000,0.0324,0.013523,0.002678,0.000431,0.005876
9491000,0.0324,0.013523,0.002678,0.000431,0.006111
9492000,0.0324,0.013523,0.002678,0.000431,0.005876
9493000,0.0324,0.013523,0.002678,0.000431,0.005876
9494000,0.0324,0.013523,0.002678,0.000431,0.005641
9495000,0.0324,0.013523,0.002678,0.000431,0.005406
9496000,0.0324,0.013523,0.002678,0.000431,0.005759
9497000,0.0324,0.013523,0.002678,0.000431,0.006229
9498000,0.0324,0.013523,0.002678,0.000431,0.005759
9499000,0.0324,0.013523,0.002678,0.000431,0.005641
9500000,0.0324,0.013523,0.002678,0.000431,0.006111
9501000,0.0324,0.013523,0.002678,0.000431,0.005641
9502000,0.0324,0.013523,0.002678,0.000431,0.005524
9503000,0.0324,0.013523,0.002678,0.000431,0.006229
9504000,0.0324,0.013523,0.002678,0.000431,0.005641
9505000,0.0324,0.013523,0.002678,0.000431,0.005759
9506000,0.0324,0.013523,0.002678,0.000431,0.005876
9507000,0.0324,0.013523,0.002678,0.000431,0.006111
9508000,0.0324,0.013523,0.002678,0.000431,0.005641
9509000,0.0324,0.013523,0.002678,0.000431,0.006111
9510000,0.0324,0.013523,0.002678,0.000431,0.005876
9511000,0.0324,0.013523,0.002678,0.000431,0.005759
9512000,0.0324,0.013523,0.002678,0.000431,0.005994
9513000,0.0324,0.013523,0.002678,0.000431,0.006464
9514000,0.0324,0.013523,0.002678,0.000431,0.005054
9515000,0.0324,0.013523,0.002678,0.000431,0.005759
9516000,0.0324,0.013523,0.002678,0.000431,0.005641
9517000,0.0324,0.013523,0.002678,0.000431,0.006111
9518000,0.0324,0.013523,0.002678,0.000431,0.005289
9519000,0.0324,0.013523,0.002678,0.000431,0.005994
9520000,0.0324,0.013523,0.002678,0.000431,0.005876
9521000,0.0324,0.013523,0.002678,0.000431,0.005524
9522000,0.0324,0.013523,0.002678,0.000431,0.005759
9523000,0.0324,0.013523,0.002678,0.000431,0.006347
9524000,0.0324,0.013523,0.002678,0.000431,0.005876
9525000,0.0324,0.013523,0.002678,0.000431,0.005876
9526000,0.0324,0.013523,0.002678,0.000431,0.005994
9527000,0.0324,0.013523,0.002678,0.000431,0.005876
9528000,0.0324,0.013523,0.002678,0.000431,0.006111
9529000,0.0324,0.013523,0.002678,0.000431,0.005171
9530000,0.0324,0.013523,0.002678,0.000431,0.005524
9531000,0.0324,0.013523,0.002678,0.000431,0.006229
9532000,0.0324,0.013523,0.002678,0.000431,0.005759
9533000,0.0324,0.013523,0.002678,0.000431,0.005759
9534000,0.0324,0.013523,0.002678,0.000431,0.007052
9535000,0.0324,0.013523,0.002678,0.000431,0.004819
9536000,0.0324,0.013523,0.002678,0.000431,0.006111
9537000,0.0324,0.013523,0.002678,0.000431,0.005759
9538000,0.0324,0.013523,0.002678,0.000431,0.005876
9539000,0.0324,0.013523,0.002678,0.000431,0.005641
9540000,0.0324,0.013523,0.002678,0.000431,0.006229
9541000,0.0324,0.013523,0.002678,0.000431,0.005759
9542000,0.0324,0.013523,0.002678,0.000431,0.005406
9543000,0.0324,0.013523,0.002678,0.000431,0.006464
9544000,0.0324,0.013523,0.002678,0.000431,0.005994
9545000,0.0324,0.013523,0.002678,0.000431,0.005524
9546000,0.0324,0.013523,0.002678,0.000431,0.005759
9547000,0.0324,0.013523,0.002678,0.000431,0.005524
9548000,0.0324,0.013523,0.002678,0.000431,0.005759
9549000,0.0324,0.013523,0.002678,0.000431,0.005876
9550000,0.0324,0.013523,0.002678,0.000431,0.005876
9551000,0.0324,0.013523,0.002678,0.000431,0.005876
9552000,0.0324,0.013523,0.002678,0.000431,0.005641
9553000,0.0324,0.013523,0.002678,0.000431,0.006229
9554000,0.0324,0.013523,0.002678,0.000431,0.006111
9555000,0.0324,0.013523,0.002678,0.000431,0.005759
9556000,0.0324,0.013523,0.002678,0.000431,0.005524
9557000,0.0324,0.013523,0.002678,0.000431,0.005994
9558000,0.0324,0.013523,0.002678,0.000431,0.005641
9559000,0.0324,0.013523,0.002678,0.000431,0.005289
9560000,0.0324,0.013523,0.002678,0.000431,0.006229
9561000,0.0324,0.013523,0.002678,0.000431,0.005406
9562000,0.0324,0.013523,0.002678,0.000431,0.005759
9563000,0.0324,0.013523,0.002678,0.000431,0.005759
9564000,0.0324,0.013523,0.002678,0.000431,0.005641
9565000,0.0324,0.013523,0.002678,0.000431,0.005289
9566000,0.0324,0.013523,0.002678,0.000431,0.005406
9567000,0.0324,0.013523,0.002678,0.000431,0.006817
9568000,0.0324,0.013523,0.002678,0.000431,0.005054
9569000,0.0324,0.013523,0.002678,0.000431,0.005406
9570000,0.0324,0.013523,0.002678,0.000431,0.005524
9571000,0.0324,0.013523,0.002678,0.000431,0.005876
9572000,0.0324,0.013523,0.002678,0.000431,0.005524
9573000,0.0324,0.013523,0.002678,0.000431,0.005406
9574000,0.0324,0.013523,0.002678,0.000431,0.005406
9575000,0.0324,0.013523,0.002678,0.000431,0.005994
9576000,0.0324,0.013523,0.002678,0.000431,0.005289
9577000,0.0324,0.013523,0.002678,0.000431,0.005641
9578000,0.0324,0.013523,0.002678,0.000431,0.006111
9579000,0.0324,0.013523,0.002678,0.000431,0.005171
9580000,0.0324,0.013523,0.002678,0.000431,0.005289
9581000,0.0324,0.013523,0.002678,0.000431,0.006464
9582000,0.0324,0.013523,0.002678,0.000431,0.005289
9583000,0.0324,0.013523,0.002678,0.000431,0.005524
9584000,0.0324,0.013523,0.002678,0.000431,0.006111
9585000,0.0324,0.013523,0.002678,0.000431,0.005876
9586000,0.0324,0.013523,0.002678,0.000431,0.005054
9587000,0.0324,0.013523,0.002678,0.000431,0.006229
9588000,0.0324,0.013523,0.002678,0.000431,0.005994
9589000,0.0324,0.013523,0.002678,0.000431,0.005171
9590000,0.0324,0.013523,0.002678,0.000431,0.005759
9591000,0.0324,0.013523,0.002678,0.000431,0.005641
9592000,0.0324,0.013523,0.002678,0.000431,0.005876
9593000,0.0324,0.013523,0.002678,0.000431,0.004936
9594000,0.0324,0.013523,0.002678,0.000431,0.005876
9595000,0.0324,0.013523,0.002678,0.000431,0.006229
9596000,0.0324,0.013523,0.002678,0.000431,0.005406
9597000,0.0324,0.013523,0.002678,0.000431,0.005289
9598000,0.0324,0.013523,0.002678,0.000431,0.006229
9599000,0.0324,0.013523,0.002678,0.000431,0.005524
9600000,0.0324,0.013523,0.002678,0.000431,0.005641
9601000,0.0324,0.013523,0.002678,0.000431,0.005759
9602000,0.0324,0.013523,0.002678,0.000431,0.005876
9603000,0.0324,0.013523,0.002678,0.000431,0.005524
9604000,0.0324,0.013523,0.002678,0.000431,0.005524
9605000,0.0324,0.013523,0.002678,0.000431,0.005876
9606000,0.0324,0.013523,0.002678,0.000431,0.005406
9607000,0.0324,0.013523,0.002678,0.000431,0.005289
9608000,0.0324,0.013523,0.002678,0.000431,0.006699
9609000,0.0324,0.013523,0.002678,0.000431,0.004936
9610000,0.0324,0.013523,0.002678,0.000431,0.005876
9611000,0.0324,0.013523,0.002678,0.000431,0.005759
9612000,0.0324,0.013523,0.002678,0.000431,0.005876
9613000,0.0324,0.013523,0.002678,0.000431,0.005171
9614000,0.0324,0.013523,0.002678,0.000431,0.005876
9615000,0.0324,0.013523,0.002678,0.000431,0.006111
9616000,0.0324,0.013523,0.002678,0.000431,0.005524
9617000,0.0324,0.013523,0.002678,0.000431,0.005641
9618000,0.0324,0.013523,0.002678,0.000431,0.005406
9619000,0.0324,0.013523,0.002678,0.000431,0.006347
9620000,0.0324,0.013523,0.002678,0.000431,0.005171
9621000,0.0324,0.013523,0.002678,0.000431,0.005524
9622000,0.0324,0.013523,0.002678,0.000431,0.006582
9623000,0.0324,0.013523,0.002678,0.000431,0.005171
9624000,0.0324,0.013523,0.002678,0.000431,0.005406
9625000,0.0324,0.013523,0.002678,0.000431,0.006347
9626000,0.0324,0.013523,0.002678,0.000431,0.005289
9627000,0.0324,0.013523,0.002678,0.000431,0.005524
9628000,0.0324,0.013523,0.002678,0.000431,0.005876
9629000,0.0324,0.013523,0.002678,0.000431,0.005524
9630000,0.0324,0.013523,0.002678,0.000431,0.005289
9631000,0.0324,0.013523,0.002678,0.000431,0.006111
9632000,0.0324,0.013523,0.002678,0.000431,0.006582
9633000,0.0324,0.013523,0.002678,0.000431,0.005641
9634000,0.0324,0.013523,0.002678,0.000431,0.006111
9635000,0.0324,0.013523,0.002678,0.000431,0.005406
9636000,0.0324,0.013523,0.002678,0.000431,0.005994
9637000,0.0324,0.013523,0.002678,0.000431,0.005876
9638000,0.0324,0.013523,0.002678,0.000431,0.006111
9639000,0.0324,0.013523,0.002678,0.000431,0.006229
9640000,0.0324,0.013523,0.002678,0.000431,0.005759
9641000,0.0324,0.013523,0.002678,0.000431,0.005876
9642000,0.0324,0.013523,0.002678,0.000431,0.005994
9643000,0.0324,0.013523,0.002678,0.000431,0.005759
9644000,0.0324,0.013523,0.002678,0.000431,0.005641
9645000,0.0324,0.013523,0.002678,0.000431,0.005641
9646000,0.0324,0.013523,0.002678,0.000431,0.006229
9647000,0.0324,0.013523,0.002678,0.000431,0.004936
9648000,0.0324,0.013523,0.002678,0.000431,0.005289
9649000,0.0324,0.013523,0.002678,0.000431,0.006111
9650000,0.0324,0.013523,0.002678,0.000431,0.005406
9651000,0.0324,0.013523,0.002678,0.000431,0.005876
9652000,0.0324,0.013523,0.002678,0.000431,0.005641
9653000,0.0324,0.013523,0.002678,0.000431,0.005876
9654000,0.0324,0.013523,0.002678,0.000431,0.005406
9655000,0.0324,0.013523,0.002678,0.000431,0.005524
9656000,0.0324,0.013523,0.002678,0.000431,0.005876
9657000,0.0324,0.013523,0.002678,0.000431,0.005524
9658000,0.0324,0.013523,0.002678,0.000431,0.005759
9659000,0.0324,0.013523,0.002678,0.000431,0.005759
9660000,0.0324,0.013523,0.002678,0.000431,0.005876
9661000,0.0324,0.013523,0.002678,0.000431,0.005171
9662000,0.0324,0.013523,0.002678,0.000431,0.005994
9663000,0.0324,0.013523,0.002678,0.000431,0.005641
9664000,0.0324,0.013523,0.002678,0.000431,0.005524
9665000,0.0324,0.013523,0.002678,0.000431,0.005994
9666000,0.0324,0.013523,0.002678,0.000431,0.006111
9667000,0.0324,0.013523,0.002678,0.000431,0.005641
9668000,0.0324,0.013523,0.002678,0.000431,0.005994
9669000,0.0324,0.013523,0.002678,0.000431,0.005876
9670000,0.0324,0.013523,0.002678,0.000431,0.006229
9671000,0.0324,0.013523,0.002678,0.000431,0.005641
9672000,0.0324,0.013523,0.002678,0.000431,0.005994
9673000,0.0324,0.013523,0.002678,0.000431,0.006347
9674000,0.0324,0.013523,0.002678,0.000431,0.005876
9675000,0.0324,0.013523,0.002678,0.000431,0.005406
9676000,0.0324,0.013523,0.002678,0.000431,0.006111
9677000,0.0324,0.013523,0.002678,0.000431,0.005994
9678000,0.0324,0.013523,0.002678,0.000431,0.005759
9679000,0.0324,0.013523,0.002678,0.000431,0.005641
9680000,0.0324,0.013523,0.002678,0.000431,0.005994
9681000,0.0324,0.013523,0.002678,0.000431,0.005641
9682000,0.0324,0.013523,0.002678,0.000431,0.005641
9683000,0.0324,0.013523,0.002678,0.000431,0.005994
9684000,0.0324,0.013523,0.002678,0.000431,0.005994
9685000,0.0324,0.013523,0.002678,0.000431,0.005876
9686000,0.0324,0.013523,0.002678,0.000431,0.005641
9687000,0.0324,0.013523,0.002678,0.000431,0.006464
9688000,0.0324,0.013523,0.002678,0.000431,0.004936
9689000,0.0324,0.013523,0.002678,0.000431,0.005876
9690000,0.0324,0.013523,0.002678,0.000431,0.006464
9691000,0.0324,0.013523,0.002678,0.000431,0.005641
9692000,0.0324,0.013523,0.002678,0.000431,0.005289
9693000,0.0324,0.013523,0.002678,0.000431,0.005876
9694000,0.0324,0.013523,0.002678,0.000431,0.005759
9695000,0.0324,0.013523,0.002678,0.000431,0.005406
9696000,0.0324,0.013523,0.002678,0.000431,0.006347
9697000,0.0324,0.013523,0.002678,0.000431,0.006111
9698000,0.0324,0.013523,0.002678,0.000431,0.005994
9699000,0.0324,0.013523,0.002678,0.000431,0.005759
9700000,0.0324,0.013523,0.002678,0.000431,0.005994
9701000,0.0324,0.013523,0.002678,0.000431,0.005994
9702000,0.0324,0.013523,0.002678,0.000431,0.005406
9703000,0.0324,0.013523,0.002678,0.000431,0.006464
9704000,0.0324,0.013523,0.002678,0.000431,0.005994
9705000,0.0324,0.013523,0.002678,0.000431,0.005054
9706000,0.0324,0.013523,0.002678,0.000431,0.005406
9707000,0.0324,0.013523,0.002678,0.000431,0.006347
9708000,0.0324,0.013523,0.002678,0.000431,0.005759
9709000,0.0324,0.013523,0.002678,0.000431,0.005289
9710000,0.0324,0.013523,0.002678,0.000431,0.006111
9711000,0.0324,0.013523,0.002678,0.000431,0.005406
9712000,0.0324,0.013523,0.002678,0.000431,0.005289
9713000,0.0324,0.013523,0.002678,0.000431,0.005759
9714000,0.0324,0.013523,0.002678,0.000431,0.006582
9715000,0.0324,0.013523,0.002678,0.000431,0.005641
9716000,0.0324,0.013523,0.002678,0.000431,0.005406
9717000,0.0324,0.013523,0.002678,0.000431,0.006464
9718000,0.0324,0.013523,0.002678,0.000431,0.005641
9719000,0.0324,0.013523,0.002678,0.000431,0.005641
9720000,0.0324,0.013523,0.002678,0.000431,0.005759
9721000,0.0324,0.013523,0.002678,0.000431,0.006111
9722000,0.0324,0.013523,0.002678,0.000431,0.004936
9723000,0.0324,0.013523,0.002678,0.000431,0.005994
9724000,0.0324,0.013523,0.002678,0.000431,0.006464
9725000,0.0324,0.013523,0.002678,0.000431,0.005406
9726000,0.0324,0.013523,0.002678,0.000431,0.005759
9727000,0.0324,0.013523,0.002678,0.000431,0.005759
9728000,0.0324,0.013523,0.002678,0.000431,0.005759
9729000,0.0324,0.013523,0.002678,0.000431,0.005171
9730000,0.0324,0.013523,0.002678,0.000431,0.005876
9731000,0.0324,0.013523,0.002678,0.000431,0.006111
9732000,0.0324,0.013523,0.002678,0.000431,0.005759
9733000,0.0324,0.013523,0.002678,0.000431,0.005524
9734000,0.0324,0.013523,0.002678,0.000431,0.006229
9735000,0.0324,0.013523,0.002678,0.000431,0.005524
9736000,0.0324,0.013523,0.002678,0.000431,0.005406
9737000,0.0324,0.013523,0.002678,0.000431,0.005759
9738000,0.0324,0.013523,0.002678,0.000431,0.005641
9739000,0.0324,0.013523,0.002678,0.000431,0.005524
9740000,0.0324,0.013523,0.002678,0.000431,0.005641
9741000,0.0324,0.013523,0.002678,0.000431,0.005994
9742000,0.0324,0.013523,0.002678,0.000431,0.005759
9743000,0.0324,0.013523,0.002678,0.000431,0.005641
9744000,0.0324,0.013523,0.002678,0.000431,0.006229
9745000,0.0324,0.013523,0.002678,0.000431,0.005641
9746000,0.0324,0.013523,0.002678,0.000431,0.005524
9747000,0.0324,0.013523,0.002678,0.000431,0.005759
9748000,0.0324,0.013523,0.002678,0.000431,0.006111
9749000,0.0324,0.013523,0.002678,0.000431,0.005876
9750000,0.0324,0.013523,0.002678,0.000431,0.005524
9751000,0.0324,0.013523,0.002678,0.000431,0.006229
9752000,0.0324,0.013523,0.002678,0.000431,0.006111
9753000,0.0324,0.013523,0.002678,0.000431,0.005171
9754000,0.0324,0.013523,0.002678,0.000431,0.005641
9755000,0.0324,0.013523,0.002678,0.000431,0.006347
9756000,0.0324,0.013523,0.002678,0.000431,0.005641
9757000,0.0324,0.013523,0.002678,0.000431,0.005759
9758000,0.0324,0.013523,0.002678,0.000431,0.006699
9759000,0.0324,0.013523,0.002678,0.000431,0.005641
9760000,0.0324,0.013523,0.002678,0.000431,0.005524
9761000,0.0324,0.013523,0.002678,0.000431,0.006111
9762000,0.0324,0.013523,0.002678,0.000431,0.006347
9763000,0.0324,0.013523,0.002678,0.000431,0.004819
9764000,0.0324,0.013523,0.002678,0.000431,0.006111
9765000,0.0324,0.013523,0.002678,0.000431,0.006582
9766000,0.0324,0.013523,0.002678,0.000431,0.005524
9767000,0.0324,0.013523,0.002678,0.000431,0.005524
9768000,0.0324,0.013523,0.002678,0.000431,0.006347
9769000,0.0324,0.013523,0.002678,0.000431,0.005524
9770000,0.0324,0.013523,0.002678,0.000431,0.005289
9771000,0.0324,0.013523,0.002678,0.000431,0.006111
9772000,0.0324,0.013523,0.002678,0.000431,0.006347
9773000,0.0324,0.013523,0.002678,0.000431,0.005759
9774000,0.0324,0.013523,0.002678,0.000431,0.005876
9775000,0.0324,0.013523,0.002678,0.000431,0.006347
9776000,0.0324,0.013523,0.002678,0.000431,0.005524
9777000,0.0324,0.013523,0.002678,0.000431,0.005289
9778000,0.0324,0.013523,0.002678,0.000431,0.006111
9779000,0.0324,0.013523,0.002678,0.000431,0.005876
9780000,0.0324,0.013523,0.002678,0.000431,0.005524
9781000,0.0324,0.013523,0.002678,0.000431,0.005876
9782000,0.0324,0.013523,0.002678,0.000431,0.006229
9783000,0.0324,0.013523,0.002678,0.000431,0.005759
9784000,0.0324,0.013523,0.002678,0.000431,0.005759
9785000,0.0324,0.013523,0.002678,0.000431,0.006582
9786000,0.0324,0.013523,0.002678,0.000431,0.005289
9787000,0.0324,0.013523,0.002678,0.000431,0.005876
9788000,0.0324,0.013523,0.002678,0.000431,0.005759
9789000,0.0324,0.013523,0.002678,0.000431,0.006464
9790000,0.0324,0.013523,0.002678,0.000431,0.005641
9791000,0.0324,0.013523,0.002678,0.000431,0.005876
9792000,0.0324,0.013523,0.002678,0.000431,0.006229
9793000,0.0324,0.013523,0.002678,0.000431,0.005406
9794000,0.0324,0.013523,0.002678,0.000431,0.005524
9795000,0.0324,0.013523,0.002678,0.000431,0.006347
9796000,0.0324,0.013523,0.002678,0.000431,0.005641
9797000,0.0324,0.013523,0.002678,0.000431,0.005759
9798000,0.0324,0.013523,0.002678,0.000431,0.005524
9799000,0.0324,0.013523,0.002678,0.000431,0.005876
9800000,0.0324,0.013523,0.002678,0.000431,0.006229
9801000,0.0324,0.013523,0.002678,0.000431,0.005289
9802000,0.0324,0.013523,0.002678,0.000431,0.006347
9803000,0.0324,0.013523,0.002678,0.000431,0.005641
9804000,0.0324,0.013523,0.002678,0.000431,0.005054
9805000,0.0324,0.013523,0.002678,0.000431,0.006111
9806000,0.0324,0.013523,0.002678,0.000431,0.006464
9807000,0.0324,0.013523,0.002678,0.000431,0.005876
9808000,0.0324,0.013523,0.002678,0.000431,0.005406
9809000,0.0324,0.013523,0.002678,0.000431,0.005759
9810000,0.0324,0.013523,0.002678,0.000431,0.005524
9811000,0.0324,0.013523,0.002678,0.000431,0.005406
9812000,0.0324,0.013523,0.002678,0.000431,0.005994
9813000,0.0324,0.013523,0.002678,0.000431,0.005994
9814000,0.0324,0.013523,0.002678,0.000431,0.005406
9815000,0.0324,0.013523,0.002678,0.000431,0.005289
9816000,0.0324,0.013523,0.002678,0.000431,0.006229
9817000,0.0324,0.013523,0.002678,0.000431,0.005641
9818000,0.0324,0.013523,0.002678,0.000431,0.005641
9819000,0.0324,0.013523,0.002678,0.000431,0.005994
9820000,0.0324,0.013523,0.002678,0.000431,0.006111
9821000,0.0324,0.013523,0.002678,0.000431,0.004584
9822000,0.0324,0.013523,0.002678,0.000431,0.005994
9823000,0.0324,0.013523,0.002678,0.000431,0.006111
9824000,0.0324,0.013523,0.002678,0.000431,0.006229
9825000,0.0324,0.013523,0.002678,0.000431,0.005171
9826000,0.0324,0.013523,0.002678,0.000431,0.006347
9827000,0.0324,0.013523,0.002678,0.000431,0.005406
9828000,0.0324,0.013523,0.002678,0.000431,0.005524
9829000,0.0324,0.013523,0.002678,0.000431,0.005759
9830000,0.0324,0.013523,0.002678,0.000431,0.005994
9831000,0.0324,0.013523,0.002678,0.000431,0.005406
9832000,0.0324,0.013523,0.002678,0.000431,0.005406
9833000,0.0324,0.013523,0.002678,0.000431,0.006111
9834000,0.0324,0.013523,0.002678,0.000431,0.005289
9835000,0.0324,0.013523,0.002678,0.000431,0.005759
9836000,0.0324,0.013523,0.002678,0.000431,0.005406
9837000,0.0324,0.013523,0.002678,0.000431,0.006111
9838000,0.0324,0.013523,0.002678,0.000431,0.005524
9839000,0.0324,0.013523,0.002678,0.000431,0.005406
9840000,0.0324,0.013523,0.002678,0.000431,0.006111
9841000,0.0324,0.013523,0.002678,0.000431,0.005289
9842000,0.0324,0.013523,0.002678,0.000431,0.005876
9843000,0.0324,0.013523,0.002678,0.000431,0.005406
9844000,0.0324,0.013523,0.002678,0.000431,0.005759
9845000,0.0324,0.013523,0.002678,0.000431,0.005524
9846000,0.0324,0.013523,0.002678,0.000431,0.005641
9847000,0.0324,0.013523,0.002678,0.000431,0.006111
9848000,0.0324,0.013523,0.002678,0.000431,0.005759
9849000,0.0324,0.013523,0.002678,0.000431,0.005054
9850000,0.0324,0.013523,0.002678,0.000431,0.006111
9851000,0.0324,0.013523,0.002678,0.000431,0.005289
9852000,0.0324,0.013523,0.002678,0.000431,0.005406
9853000,0.0324,0.013523,0.002678,0.000431,0.005759
9854000,0.0324,0.013523,0.002678,0.000431,0.005524
9855000,0.0324,0.013523,0.002678,0.000431,0.005876
9856000,0.0324,0.013523,0.002678,0.000431,0.005171
9857000,0.0324,0.013523,0.002678,0.000431,0.005876
9858000,0.0324,0.013523,0.002678,0.000431,0.005759
9859000,0.0324,0.013523,0.002678,0.000431,0.005524
9860000,0.0324,0.013523,0.002678,0.000431,0.005406
9861000,0.0324,0.013523,0.002678,0.000431,0.005876
9862000,0.0324,0.013523,0.002678,0.000431,0.005641
9863000,0.0324,0.013523,0.002678,0.000431,0.005641
9864000,0.0324,0.013523,0.002678,0.000431,0.005759
9865000,0.0324,0.013523,0.002678,0.000431,0.005876
9866000,0.0324,0.013523,0.002678,0.000431,0.004819
9867000,0.0324,0.013523,0.002678,0.000431,0.005641
9868000,0.0324,0.013523,0.002678,0.000431,0.005876
9869000,0.0324,0.013523,0.002678,0.000431,0.005524
9870000,0.0324,0.013523,0.002678,0.000431,0.005641
9871000,0.0324,0.013523,0.002678,0.000431,0.006111
9872000,0.0324,0.013523,0.002678,0.000431,0.005524
9873000,0.0324,0.013523,0.002678,0.000431,0.004936
9874000,0.0324,0.013523,0.002678,0.000431,0.006229
9875000,0.0324,0.013523,0.002678,0.000431,0.005759
9876000,0.0324,0.013523,0.002678,0.000431,0.006111
9877000,0.0324,0.013523,0.002678,0.000431,0.005289
9878000,0.0324,0.013523,0.002678,0.000431,0.005876
9879000,0.0324,0.013523,0.002678,0.000431,0.005054
9880000,0.0324,0.013523,0.002678,0.000431,0.005524
9881000,0.0324,0.013523,0.002678,0.000431,0.006111
9882000,0.0324,0.013523,0.002678,0.000431,0.006111
9883000,0.0324,0.013523,0.002678,0.000431,0.005524
9884000,0.0324,0.013523,0.002678,0.000431,0.005406
9885000,0.0324,0.013523,0.002678,0.000431,0.005876
9886000,0.0324,0.013523,0.002678,0.000431,0.004936
9887000,0.0324,0.013523,0.002678,0.000431,0.006111
9888000,0.0324,0.013523,0.002678,0.000431,0.005876
9889000,0.0324,0.013523,0.002678,0.000431,0.005641
9890000,0.0324,0.013523,0.002678,0.000431,0.005759
9891000,0.0324,0.013523,0.002678,0.000431,0.005524
9892000,0.0324,0.013523,0.002678,0.000431,0.006347
9893000,0.0324,0.013523,0.002678,0.000431,0.005171
9894000,0.0324,0.013523,0.002678,0.000431,0.005641
9895000,0.0324,0.013523,0.002678,0.000431,0.005759
9896000,0.0324,0.013523,0.002678,0.000431,0.005759
9897000,0.0324,0.013523,0.002678,0.000431,0.004936
9898000,0.0324,0.013523,0.002678,0.000431,0.006699
9899000,0.0324,0.013523,0.002678,0.000431,0.005054
9900000,0.0324,0.013523,0.002678,0.000431,0.006111
9901000,0.0324,0.013523,0.002678,0.000431,0.005054
9902000,0.0324,0.013523,0.002678,0.000431,0.006111
9903000,0.0324,0.013523,0.002678,0.000431,0.005289
9904000,0.0324,0.013523,0.002678,0.000431,0.005759
9905000,0.0324,0.013523,0.002678,0.000431,0.005524
9906000,0.0324,0.013523,0.002678,0.000431,0.005994
9907000,0.0324,0.013523,0.002678,0.000431,0.005289
9908000,0.0324,0.013523,0.002678,0.000431,0.005641
9909000,0.0324,0.013523,0.002678,0.000431,0.005524
9910000,0.0324,0.013523,0.002678,0.000431,0.005054
9911000,0.0324,0.013523,0.002678,0.000431,0.005759
9912000,0.0324,0.013523,0.002678,0.000431,0.005876
9913000,0.0324,0.013523,0.002678,0.000431,0.005641
9914000,0.0324,0.013523,0.002678,0.000431,0.005524
9915000,0.0324,0.013523,0.002678,0.000431,0.006229
9916000,0.0324,0.013523,0.002678,0.000431,0.005289
9917000,0.0324,0.013523,0.002678,0.000431,0.005759
9918000,0.0324,0.013523,0.002678,0.000431,0.005759
9919000,0.0324,0.013523,0.002678,0.000431,0.006111
9920000,0.0324,0.013523,0.002678,0.000431,0.005406
9921000,0.0324,0.013523,0.002678,0.000431,0.005524
9922000,0.0324,0.013523,0.002678,0.000431,0.006582
9923000,0.0324,0.013523,0.002678,0.000431,0.005641
9924000,0.0324,0.013523,0.002678,0.000431,0.005054
9925000,0.0324,0.013523,0.002678,0.000431,0.006582
9926000,0.0324,0.013523,0.002678,0.000431,0.005759
9927000,0.0324,0.013523,0.002678,0.000431,0.005289
9928000,0.0324,0.013523,0.002678,0.000431,0.005759
9929000,0.0324,0.013523,0.002678,0.000431,0.006111
9930000,0.0324,0.013523,0.002678,0.000431,0.005524
9931000,0.0324,0.013523,0.002678,0.000431,0.005289
9932000,0.0324,0.013523,0.002678,0.000431,0.005994
9933000,0.0324,0.013523,0.002678,0.000431,0.005994
9934000,0.0324,0.013523,0.002678,0.000431,0.005289
9935000,0.0324,0.013523,0.002678,0.000431,0.005641
9936000,0.0324,0.013523,0.002678,0.000431,0.005759
9937000,0.0324,0.013523,0.002678,0.000431,0.005641
9938000,0.0324,0.013523,0.002678,0.000431,0.005876
9939000,0.0324,0.013523,0.002678,0.000431,0.006582
9940000,0.0324,0.013523,0.002678,0.000431,0.005524
9941000,0.0324,0.013523,0.002678,0.000431,0.005994
9942000,0.0324,0.013523,0.002678,0.000431,0.005406
9943000,0.0324,0.013523,0.002678,0.000431,0.005876
9944000,0.0324,0.013523,0.002678,0.000431,0.005406
9945000,0.0324,0.013523,0.002678,0.000431,0.006229
9946000,0.0324,0.013523,0.002678,0.000431,0.005994
9947000,0.0324,0.013523,0.002678,0.000431,0.005524
9948000,0.0324,0.013523,0.002678,0.000431,0.005641
9949000,0.0324,0.013523,0.002678,0.000431,0.006582
9950000,0.0324,0.013523,0.002678,0.000431,0.005289
9951000,0.0324,0.013523,0.002678,0.000431,0.005524
9952000,0.0324,0.013523,0.002678,0.000431,0.006111
9953000,0.0324,0.013523,0.002678,0.000431,0.005994
9954000,0.0324,0.013523,0.002678,0.000431,0.004936
9955000,0.0324,0.013523,0.002678,0.000431,0.006111
9956000,0.0324,0.013523,0.002678,0.000431,0.005876
9957000,0.0324,0.013523,0.002678,0.000431,0.005524
9958000,0.0324,0.013523,0.002678,0.000431,0.005759
9959000,0.0324,0.013523,0.002678,0.000431,0.006111
9960000,0.0324,0.013523,0.002678,0.000431,0.005994
9961000,0.0324,0.013523,0.002678,0.000431,0.004936
9962000,0.0324,0.013523,0.002678,0.000431,0.006699
9963000,0.0324,0.013523,0.002678,0.000431,0.005641
9964000,0.0324,0.013523,0.002678,0.000431,0.005641
9965000,0.0324,0.013523,0.002678,0.000431,0.005641
9966000,0.0324,0.013523,0.002678,0.000431,0.005994
9967000,0.0324,0.013523,0.002678,0.000431,0.005524
9968000,0.0324,0.013523,0.002678,0.000431,0.005524
9969000,0.0324,0.013523,0.002678,0.000431,0.005876
9970000,0.0324,0.013523,0.002678,0.000431,0.005641
9971000,0.0324,0.013523,0.002678,0.000431,0.005759
9972000,0.0324,0.013523,0.002678,0.000431,0.005406
9973000,0.0324,0.013523,0.002678,0.000431,0.005759
9974000,0.0324,0.013523,0.002678,0.000431,0.005759
9975000,0.0324,0.013523,0.002678,0.000431,0.004936
9976000,0.0324,0.013523,0.002678,0.000431,0.006817
9977000,0.0324,0.013523,0.002678,0.000431,0.004936
9978000,0.0324,0.013523,0.002678,0.000431,0.005759
9979000,0.0324,0.013523,0.002678,0.000431,0.005641
9980000,0.0324,0.013523,0.002678,0.000431,0.006111
9981000,0.0324,0.013523,0.002678,0.000431,0.005289
9982000,0.0324,0.013523,0.002678,0.000431,0.005994
9983000,0.0324,0.013523,0.002678,0.000431,0.006111
9984000,0.0324,0.013523,0.002678,0.000431,0.005524
9985000,0.0324,0.013523,0.002678,0.000431,0.005524
9986000,0.0324,0.013523,0.002678,0.000431,0.005524
9987000,0.0324,0.013523,0.002678,0.000431,0.004936
9988000,0.0324,0.013523,0.002678,0.000431,0.005406
9989000,0.0324,0.013523,0.002678,0.000431,0.005759
9990000,0.0324,0.013523,0.002678,0.000431,0.005876
9991000,0.0324,0.013523,0.002678,0.000431,0.005406
9992000,0.0324,0.013523,0.002678,0.000431,0.005641
9993000,0.0324,0.013523,0.002678,0.000431,0.005641
9994000,0.0324,0.013523,0.002678,0.000431,0.005876
9995000,0.0324,0.013523,0.002678,0.000431,0.005641
9996000,0.0324,0.013523,0.002678,0.000431,0.005524
9997000,0.0324,0.013523,0.002678,0.000431,0.005994
9998000,0.0324,0.013523,0.002678,0.000431,0.005406
9999000,0.0324,0.013523,0.002678,0.000431,0.005406
