Cycle,Area(mm^2),PeakDynamic(W),SubthresholdLeakage(W),GateLeakage(W),RunTimeDynamic(W)
13000000,0.0324,0.013523,0.002678,0.000431,0.003291
13001000,0.0324,0.013523,0.002678,0.000431,0.003291
13002000,0.0324,0.013523,0.002678,0.000431,0.002938
13003000,0.0324,0.013523,0.002678,0.000431,0.003526
13004000,0.0324,0.013523,0.002678,0.000431,0.003526
13005000,0.0324,0.013523,0.002678,0.000431,0.003173
13006000,0.0324,0.013523,0.002678,0.000431,0.003761
13007000,0.0324,0.013523,0.002678,0.000431,0.003408
13008000,0.0324,0.013523,0.002678,0.000431,0.003291
13009000,0.0324,0.013523,0.002678,0.000431,0.003291
13010000,0.0324,0.013523,0.002678,0.000431,0.003643
13011000,0.0324,0.013523,0.002678,0.000431,0.003408
13012000,0.0324,0.013523,0.002678,0.000431,0.003526
13013000,0.0324,0.013523,0.002678,0.000431,0.003643
13014000,0.0324,0.013523,0.002678,0.000431,0.003408
13015000,0.0324,0.013523,0.002678,0.000431,0.002821
13016000,0.0324,0.013523,0.002678,0.000431,0.003996
13017000,0.0324,0.013523,0.002678,0.000431,0.003056
13018000,0.0324,0.013523,0.002678,0.000431,0.003408
13019000,0.0324,0.013523,0.002678,0.000431,0.003761
13020000,0.0324,0.013523,0.002678,0.000431,0.003526
13021000,0.0324,0.013523,0.002678,0.000431,0.003291
13022000,0.0324,0.013523,0.002678,0.000431,0.003408
13023000,0.0324,0.013523,0.002678,0.000431,0.003526
13024000,0.0324,0.013523,0.002678,0.000431,0.003526
13025000,0.0324,0.013523,0.002678,0.000431,0.003408
13026000,0.0324,0.013523,0.002678,0.000431,0.003408
13027000,0.0324,0.013523,0.002678,0.000431,0.003408
13028000,0.0324,0.013523,0.002678,0.000431,0.003526
13029000,0.0324,0.013523,0.002678,0.000431,0.003761
13030000,0.0324,0.013523,0.002678,0.000431,0.003643
13031000,0.0324,0.013523,0.002678,0.000431,0.003526
13032000,0.0324,0.013523,0.002678,0.000431,0.003056
13033000,0.0324,0.013523,0.002678,0.000431,0.003291
13034000,0.0324,0.013523,0.002678,0.000431,0.003408
13035000,0.0324,0.013523,0.002678,0.000431,0.003643
13036000,0.0324,0.013523,0.002678,0.000431,0.003173
13037000,0.0324,0.013523,0.002678,0.000431,0.004113
13038000,0.0324,0.013523,0.002678,0.000431,0.003056
13039000,0.0324,0.013523,0.002678,0.000431,0.003291
13040000,0.0324,0.013523,0.002678,0.000431,0.003643
13041000,0.0324,0.013523,0.002678,0.000431,0.003408
13042000,0.0324,0.013523,0.002678,0.000431,0.003291
13043000,0.0324,0.013523,0.002678,0.000431,0.003643
13044000,0.0324,0.013523,0.002678,0.000431,0.003526
13045000,0.0324,0.013523,0.002678,0.000431,0.003291
13046000,0.0324,0.013523,0.002678,0.000431,0.003643
13047000,0.0324,0.013523,0.002678,0.000431,0.003643
13048000,0.0324,0.013523,0.002678,0.000431,0.003526
13049000,0.0324,0.013523,0.002678,0.000431,0.003526
13050000,0.0324,0.013523,0.002678,0.000431,0.003173
13051000,0.0324,0.013523,0.002678,0.000431,0.003643
13052000,0.0324,0.013523,0.002678,0.000431,0.003291
13053000,0.0324,0.013523,0.002678,0.000431,0.003643
13054000,0.0324,0.013523,0.002678,0.000431,0.003526
13055000,0.0324,0.013523,0.002678,0.000431,0.003291
13056000,0.0324,0.013523,0.002678,0.000431,0.003291
13057000,0.0324,0.013523,0.002678,0.000431,0.003291
13058000,0.0324,0.013523,0.002678,0.000431,0.003526
13059000,0.0324,0.013523,0.002678,0.000431,0.003643
13060000,0.0324,0.013523,0.002678,0.000431,0.003173
13061000,0.0324,0.013523,0.002678,0.000431,0.003291
13062000,0.0324,0.013523,0.002678,0.000431,0.003408
13063000,0.0324,0.013523,0.002678,0.000431,0.003526
13064000,0.0324,0.013523,0.002678,0.000431,0.003173
13065000,0.0324,0.013523,0.002678,0.000431,0.003761
13066000,0.0324,0.013523,0.002678,0.000431,0.003291
13067000,0.0324,0.013523,0.002678,0.000431,0.003761
13068000,0.0324,0.013523,0.002678,0.000431,0.003056
13069000,0.0324,0.013523,0.002678,0.000431,0.003173
13070000,0.0324,0.013523,0.002678,0.000431,0.003996
13071000,0.0324,0.013523,0.002678,0.000431,0.003173
13072000,0.0324,0.013523,0.002678,0.000431,0.004113
13073000,0.0324,0.013523,0.002678,0.000431,0.003291
13074000,0.0324,0.013523,0.002678,0.000431,0.003056
13075000,0.0324,0.013523,0.002678,0.000431,0.002938
13076000,0.0324,0.013523,0.002678,0.000431,0.003408
13077000,0.0324,0.013523,0.002678,0.000431,0.002821
13078000,0.0324,0.013523,0.002678,0.000431,0.003643
13079000,0.0324,0.013523,0.002678,0.000431,0.002586
13080000,0.0324,0.013523,0.002678,0.000431,0.003291
13081000,0.0324,0.013523,0.002678,0.000431,0.002821
13082000,0.0324,0.013523,0.002678,0.000431,0.003056
13083000,0.0324,0.013523,0.002678,0.000431,0.003056
13084000,0.0324,0.013523,0.002678,0.000431,0.002821
13085000,0.0324,0.013523,0.002678,0.000431,0.002938
13086000,0.0324,0.013523,0.002678,0.000431,0.003056
13087000,0.0324,0.013523,0.002678,0.000431,0.003056
13088000,0.0324,0.013523,0.002678,0.000431,0.003291
13089000,0.0324,0.013523,0.002678,0.000431,0.003173
13090000,0.0324,0.013523,0.002678,0.000431,0.003173
13091000,0.0324,0.013523,0.002678,0.000431,0.003173
13092000,0.0324,0.013523,0.002678,0.000431,0.003056
13093000,0.0324,0.013523,0.002678,0.000431,0.002938
13094000,0.0324,0.013523,0.002678,0.000431,0.003291
13095000,0.0324,0.013523,0.002678,0.000431,0.003173
13096000,0.0324,0.013523,0.002678,0.000431,0.003408
13097000,0.0324,0.013523,0.002678,0.000431,0.003173
13098000,0.0324,0.013523,0.002678,0.000431,0.003173
13099000,0.0324,0.013523,0.002678,0.000431,0.002938
13100000,0.0324,0.013523,0.002678,0.000431,0.003173
13101000,0.0324,0.013523,0.002678,0.000431,0.003408
13102000,0.0324,0.013523,0.002678,0.000431,0.003173
13103000,0.0324,0.013523,0.002678,0.000431,0.003173
13104000,0.0324,0.013523,0.002678,0.000431,0.003056
13105000,0.0324,0.013523,0.002678,0.000431,0.003291
13106000,0.0324,0.013523,0.002678,0.000431,0.003291
13107000,0.0324,0.013523,0.002678,0.000431,0.003056
13108000,0.0324,0.013523,0.002678,0.000431,0.003173
13109000,0.0324,0.013523,0.002678,0.000431,0.003291
13110000,0.0324,0.013523,0.002678,0.000431,0.003056
13111000,0.0324,0.013523,0.002678,0.000431,0.003056
13112000,0.0324,0.013523,0.002678,0.000431,0.003173
13113000,0.0324,0.013523,0.002678,0.000431,0.002938
13114000,0.0324,0.013523,0.002678,0.000431,0.003526
13115000,0.0324,0.013523,0.002678,0.000431,0.002703
13116000,0.0324,0.013523,0.002678,0.000431,0.003173
13117000,0.0324,0.013523,0.002678,0.000431,0.003291
13118000,0.0324,0.013523,0.002678,0.000431,0.003056
13119000,0.0324,0.013523,0.002678,0.000431,0.003408
13120000,0.0324,0.013523,0.002678,0.000431,0.002938
13121000,0.0324,0.013523,0.002678,0.000431,0.003291
13122000,0.0324,0.013523,0.002678,0.000431,0.003291
13123000,0.0324,0.013523,0.002678,0.000431,0.003291
13124000,0.0324,0.013523,0.002678,0.000431,0.003173
13125000,0.0324,0.013523,0.002678,0.000431,0.003291
13126000,0.0324,0.013523,0.002678,0.000431,0.002938
13127000,0.0324,0.013523,0.002678,0.000431,0.002821
13128000,0.0324,0.013523,0.002678,0.000431,0.003408
13129000,0.0324,0.013523,0.002678,0.000431,0.003056
13130000,0.0324,0.013523,0.002678,0.000431,0.003408
13131000,0.0324,0.013523,0.002678,0.000431,0.002938
13132000,0.0324,0.013523,0.002678,0.000431,0.002938
13133000,0.0324,0.013523,0.002678,0.000431,0.003173
13134000,0.0324,0.013523,0.002678,0.000431,0.003056
13135000,0.0324,0.013523,0.002678,0.000431,0.003408
13136000,0.0324,0.013523,0.002678,0.000431,0.002938
13137000,0.0324,0.013523,0.002678,0.000431,0.003056
13138000,0.0324,0.013523,0.002678,0.000431,0.002703
13139000,0.0324,0.013523,0.002678,0.000431,0.003643
13140000,0.0324,0.013523,0.002678,0.000431,0.002938
13141000,0.0324,0.013523,0.002678,0.000431,0.002938
13142000,0.0324,0.013523,0.002678,0.000431,0.003173
13143000,0.0324,0.013523,0.002678,0.000431,0.002821
13144000,0.0324,0.013523,0.002678,0.000431,0.003056
13145000,0.0324,0.013523,0.002678,0.000431,0.003173
13146000,0.0324,0.013523,0.002678,0.000431,0.003056
13147000,0.0324,0.013523,0.002678,0.000431,0.003643
13148000,0.0324,0.013523,0.002678,0.000431,0.002821
13149000,0.0324,0.013523,0.002678,0.000431,0.002821
13150000,0.0324,0.013523,0.002678,0.000431,0.003408
13151000,0.0324,0.013523,0.002678,0.000431,0.002938
13152000,0.0324,0.013523,0.002678,0.000431,0.003056
13153000,0.0324,0.013523,0.002678,0.000431,0.003408
13154000,0.0324,0.013523,0.002678,0.000431,0.003291
13155000,0.0324,0.013523,0.002678,0.000431,0.002938
13156000,0.0324,0.013523,0.002678,0.000431,0.003291
13157000,0.0324,0.013523,0.002678,0.000431,0.002821
13158000,0.0324,0.013523,0.002678,0.000431,0.003291
13159000,0.0324,0.013523,0.002678,0.000431,0.003173
13160000,0.0324,0.013523,0.002678,0.000431,0.003056
13161000,0.0324,0.013523,0.002678,0.000431,0.003408
13162000,0.0324,0.013523,0.002678,0.000431,0.002703
13163000,0.0324,0.013523,0.002678,0.000431,0.003056
13164000,0.0324,0.013523,0.002678,0.000431,0.003408
13165000,0.0324,0.013523,0.002678,0.000431,0.002938
13166000,0.0324,0.013523,0.002678,0.000431,0.003173
13167000,0.0324,0.013523,0.002678,0.000431,0.003056
13168000,0.0324,0.013523,0.002678,0.000431,0.003056
13169000,0.0324,0.013523,0.002678,0.000431,0.003056
13170000,0.0324,0.013523,0.002678,0.000431,0.003291
13171000,0.0324,0.013523,0.002678,0.000431,0.003056
13172000,0.0324,0.013523,0.002678,0.000431,0.003291
13173000,0.0324,0.013523,0.002678,0.000431,0.002233
13174000,0.0324,0.013523,0.002678,0.000431,0.003291
13175000,0.0324,0.013523,0.002678,0.000431,0.003056
13176000,0.0324,0.013523,0.002678,0.000431,0.002938
13177000,0.0324,0.013523,0.002678,0.000431,0.003173
13178000,0.0324,0.013523,0.002678,0.000431,0.003056
13179000,0.0324,0.013523,0.002678,0.000431,0.002938
13180000,0.0324,0.013523,0.002678,0.000431,0.003173
13181000,0.0324,0.013523,0.002678,0.000431,0.002938
13182000,0.0324,0.013523,0.002678,0.000431,0.003173
13183000,0.0324,0.013523,0.002678,0.000431,0.003173
13184000,0.0324,0.013523,0.002678,0.000431,0.003173
13185000,0.0324,0.013523,0.002678,0.000431,0.003173
13186000,0.0324,0.013523,0.002678,0.000431,0.002703
13187000,0.0324,0.013523,0.002678,0.000431,0.002821
13188000,0.0324,0.013523,0.002678,0.000431,0.003878
13189000,0.0324,0.013523,0.002678,0.000431,0.002703
13190000,0.0324,0.013523,0.002678,0.000431,0.003173
13191000,0.0324,0.013523,0.002678,0.000431,0.003056
13192000,0.0324,0.013523,0.002678,0.000431,0.002938
13193000,0.0324,0.013523,0.002678,0.000431,0.003408
13194000,0.0324,0.013523,0.002678,0.000431,0.002938
13195000,0.0324,0.013523,0.002678,0.000431,0.003173
13196000,0.0324,0.013523,0.002678,0.000431,0.003173
13197000,0.0324,0.013523,0.002678,0.000431,0.003056
13198000,0.0324,0.013523,0.002678,0.000431,0.003291
13199000,0.0324,0.013523,0.002678,0.000431,0.003291
13200000,0.0324,0.013523,0.002678,0.000431,0.002703
13201000,0.0324,0.013523,0.002678,0.000431,0.003643
13202000,0.0324,0.013523,0.002678,0.000431,0.002938
13203000,0.0324,0.013523,0.002678,0.000431,0.002821
13204000,0.0324,0.013523,0.002678,0.000431,0.003291
13205000,0.0324,0.013523,0.002678,0.000431,0.003291
13206000,0.0324,0.013523,0.002678,0.000431,0.002938
13207000,0.0324,0.013523,0.002678,0.000431,0.003291
13208000,0.0324,0.013523,0.002678,0.000431,0.002821
13209000,0.0324,0.013523,0.002678,0.000431,0.003291
13210000,0.0324,0.013523,0.002678,0.000431,0.003056
13211000,0.0324,0.013523,0.002678,0.000431,0.003056
13212000,0.0324,0.013523,0.002678,0.000431,0.003408
13213000,0.0324,0.013523,0.002678,0.000431,0.003056
13214000,0.0324,0.013523,0.002678,0.000431,0.002938
13215000,0.0324,0.013523,0.002678,0.000431,0.003408
13216000,0.0324,0.013523,0.002678,0.000431,0.002938
13217000,0.0324,0.013523,0.002678,0.000431,0.003408
13218000,0.0324,0.013523,0.002678,0.000431,0.002821
13219000,0.0324,0.013523,0.002678,0.000431,0.003173
13220000,0.0324,0.013523,0.002678,0.000431,0.003173
13221000,0.0324,0.013523,0.002678,0.000431,0.003056
13222000,0.0324,0.013523,0.002678,0.000431,0.003643
13223000,0.0324,0.013523,0.002678,0.000431,0.003526
13224000,0.0324,0.013523,0.002678,0.000431,0.002586
13225000,0.0324,0.013523,0.002678,0.000431,0.003173
13226000,0.0324,0.013523,0.002678,0.000431,0.003056
13227000,0.0324,0.013523,0.002678,0.000431,0.003056
13228000,0.0324,0.013523,0.002678,0.000431,0.002468
13229000,0.0324,0.013523,0.002678,0.000431,0.003878
13230000,0.0324,0.013523,0.002678,0.000431,0.002703
13231000,0.0324,0.013523,0.002678,0.000431,0.003056
13232000,0.0324,0.013523,0.002678,0.000431,0.003173
13233000,0.0324,0.013523,0.002678,0.000431,0.002821
13234000,0.0324,0.013523,0.002678,0.000431,0.003291
13235000,0.0324,0.013523,0.002678,0.000431,0.002703
13236000,0.0324,0.013523,0.002678,0.000431,0.003408
13237000,0.0324,0.013523,0.002678,0.000431,0.003056
13238000,0.0324,0.013523,0.002678,0.000431,0.002703
13239000,0.0324,0.013523,0.002678,0.000431,0.003173
13240000,0.0324,0.013523,0.002678,0.000431,0.003173
13241000,0.0324,0.013523,0.002678,0.000431,0.002468
13242000,0.0324,0.013523,0.002678,0.000431,0.003291
13243000,0.0324,0.013523,0.002678,0.000431,0.003291
13244000,0.0324,0.013523,0.002678,0.000431,0.003173
13245000,0.0324,0.013523,0.002678,0.000431,0.003173
13246000,0.0324,0.013523,0.002678,0.000431,0.003056
13247000,0.0324,0.013523,0.002678,0.000431,0.003408
13248000,0.0324,0.013523,0.002678,0.000431,0.002938
13249000,0.0324,0.013523,0.002678,0.000431,0.002938
13250000,0.0324,0.013523,0.002678,0.000431,0.003291
13251000,0.0324,0.013523,0.002678,0.000431,0.003056
13252000,0.0324,0.013523,0.002678,0.000431,0.003056
13253000,0.0324,0.013523,0.002678,0.000431,0.003291
13254000,0.0324,0.013523,0.002678,0.000431,0.003173
13255000,0.0324,0.013523,0.002678,0.000431,0.002821
13256000,0.0324,0.013523,0.002678,0.000431,0.003526
13257000,0.0324,0.013523,0.002678,0.000431,0.002938
13258000,0.0324,0.013523,0.002678,0.000431,0.003408
13259000,0.0324,0.013523,0.002678,0.000431,0.002821
13260000,0.0324,0.013523,0.002678,0.000431,0.003408
13261000,0.0324,0.013523,0.002678,0.000431,0.003526
13262000,0.0324,0.013523,0.002678,0.000431,0.003173
13263000,0.0324,0.013523,0.002678,0.000431,0.003173
13264000,0.0324,0.013523,0.002678,0.000431,0.002938
13265000,0.0324,0.013523,0.002678,0.000431,0.003173
13266000,0.0324,0.013523,0.002678,0.000431,0.002938
13267000,0.0324,0.013523,0.002678,0.000431,0.003526
13268000,0.0324,0.013523,0.002678,0.000431,0.003408
13269000,0.0324,0.013523,0.002678,0.000431,0.002703
13270000,0.0324,0.013523,0.002678,0.000431,0.003408
13271000,0.0324,0.013523,0.002678,0.000431,0.003056
13272000,0.0324,0.013523,0.002678,0.000431,0.002821
13273000,0.0324,0.013523,0.002678,0.000431,0.003291
13274000,0.0324,0.013523,0.002678,0.000431,0.003173
13275000,0.0324,0.013523,0.002678,0.000431,0.002938
13276000,0.0324,0.013523,0.002678,0.000431,0.003291
13277000,0.0324,0.013523,0.002678,0.000431,0.002938
13278000,0.0324,0.013523,0.002678,0.000431,0.003173
13279000,0.0324,0.013523,0.002678,0.000431,0.003173
13280000,0.0324,0.013523,0.002678,0.000431,0.002703
13281000,0.0324,0.013523,0.002678,0.000431,0.003173
13282000,0.0324,0.013523,0.002678,0.000431,0.003526
13283000,0.0324,0.013523,0.002678,0.000431,0.002938
13284000,0.0324,0.013523,0.002678,0.000431,0.003173
13285000,0.0324,0.013523,0.002678,0.000431,0.002938
13286000,0.0324,0.013523,0.002678,0.000431,0.002821
13287000,0.0324,0.013523,0.002678,0.000431,0.003173
13288000,0.0324,0.013523,0.002678,0.000431,0.002938
13289000,0.0324,0.013523,0.002678,0.000431,0.003056
13290000,0.0324,0.013523,0.002678,0.000431,0.003291
13291000,0.0324,0.013523,0.002678,0.000431,0.003643
13292000,0.0324,0.013523,0.002678,0.000431,0.002586
13293000,0.0324,0.013523,0.002678,0.000431,0.003056
13294000,0.0324,0.013523,0.002678,0.000431,0.003173
13295000,0.0324,0.013523,0.002678,0.000431,0.003291
13296000,0.0324,0.013523,0.002678,0.000431,0.003173
13297000,0.0324,0.013523,0.002678,0.000431,0.003056
13298000,0.0324,0.013523,0.002678,0.000431,0.003291
13299000,0.0324,0.013523,0.002678,0.000431,0.002938
13300000,0.0324,0.013523,0.002678,0.000431,0.003173
13301000,0.0324,0.013523,0.002678,0.000431,0.002938
13302000,0.0324,0.013523,0.002678,0.000431,0.003408
13303000,0.0324,0.013523,0.002678,0.000431,0.003408
13304000,0.0324,0.013523,0.002678,0.000431,0.003173
13305000,0.0324,0.013523,0.002678,0.000431,0.003056
13306000,0.0324,0.013523,0.002678,0.000431,0.003408
13307000,0.0324,0.013523,0.002678,0.000431,0.002938
13308000,0.0324,0.013523,0.002678,0.000431,0.002703
13309000,0.0324,0.013523,0.002678,0.000431,0.003291
13310000,0.0324,0.013523,0.002678,0.000431,0.002938
13311000,0.0324,0.013523,0.002678,0.000431,0.003408
13312000,0.0324,0.013523,0.002678,0.000431,0.003056
13313000,0.0324,0.013523,0.002678,0.000431,0.003056
13314000,0.0324,0.013523,0.002678,0.000431,0.003173
13315000,0.0324,0.013523,0.002678,0.000431,0.003056
13316000,0.0324,0.013523,0.002678,0.000431,0.003056
13317000,0.0324,0.013523,0.002678,0.000431,0.002938
13318000,0.0324,0.013523,0.002678,0.000431,0.003291
13319000,0.0324,0.013523,0.002678,0.000431,0.003056
13320000,0.0324,0.013523,0.002678,0.000431,0.003056
13321000,0.0324,0.013523,0.002678,0.000431,0.003056
13322000,0.0324,0.013523,0.002678,0.000431,0.003056
13323000,0.0324,0.013523,0.002678,0.000431,0.003408
13324000,0.0324,0.013523,0.002678,0.000431,0.002821
13325000,0.0324,0.013523,0.002678,0.000431,0.003291
13326000,0.0324,0.013523,0.002678,0.000431,0.003056
13327000,0.0324,0.013523,0.002678,0.000431,0.003291
13328000,0.0324,0.013523,0.002678,0.000431,0.003056
13329000,0.0324,0.013523,0.002678,0.000431,0.003056
13330000,0.0324,0.013523,0.002678,0.000431,0.003173
13331000,0.0324,0.013523,0.002678,0.000431,0.002703
13332000,0.0324,0.013523,0.002678,0.000431,0.003173
13333000,0.0324,0.013523,0.002678,0.000431,0.003408
13334000,0.0324,0.013523,0.002678,0.000431,0.002821
13335000,0.0324,0.013523,0.002678,0.000431,0.003408
13336000,0.0324,0.013523,0.002678,0.000431,0.002821
13337000,0.0324,0.013523,0.002678,0.000431,0.003173
13338000,0.0324,0.013523,0.002678,0.000431,0.003173
13339000,0.0324,0.013523,0.002678,0.000431,0.003056
13340000,0.0324,0.013523,0.002678,0.000431,0.003291
13341000,0.0324,0.013523,0.002678,0.000431,0.002703
13342000,0.0324,0.013523,0.002678,0.000431,0.003173
13343000,0.0324,0.013523,0.002678,0.000431,0.003526
13344000,0.0324,0.013523,0.002678,0.000431,0.002938
13345000,0.0324,0.013523,0.002678,0.000431,0.003173
13346000,0.0324,0.013523,0.002678,0.000431,0.002821
13347000,0.0324,0.013523,0.002678,0.000431,0.003056
13348000,0.0324,0.013523,0.002678,0.000431,0.003408
13349000,0.0324,0.013523,0.002678,0.000431,0.002821
13350000,0.0324,0.013523,0.002678,0.000431,0.002938
13351000,0.0324,0.013523,0.002678,0.000431,0.002821
13352000,0.0324,0.013523,0.002678,0.000431,0.003056
13353000,0.0324,0.013523,0.002678,0.000431,0.003173
13354000,0.0324,0.013523,0.002678,0.000431,0.003408
13355000,0.0324,0.013523,0.002678,0.000431,0.002586
13356000,0.0324,0.013523,0.002678,0.000431,0.003526
13357000,0.0324,0.013523,0.002678,0.000431,0.002703
13358000,0.0324,0.013523,0.002678,0.000431,0.002821
13359000,0.0324,0.013523,0.002678,0.000431,0.003291
13360000,0.0324,0.013523,0.002678,0.000431,0.002938
13361000,0.0324,0.013523,0.002678,0.000431,0.003173
13362000,0.0324,0.013523,0.002678,0.000431,0.003291
13363000,0.0324,0.013523,0.002678,0.000431,0.002938
13364000,0.0324,0.013523,0.002678,0.000431,0.002938
13365000,0.0324,0.013523,0.002678,0.000431,0.003526
13366000,0.0324,0.013523,0.002678,0.000431,0.002821
13367000,0.0324,0.013523,0.002678,0.000431,0.003291
13368000,0.0324,0.013523,0.002678,0.000431,0.003056
13369000,0.0324,0.013523,0.002678,0.000431,0.002821
13370000,0.0324,0.013523,0.002678,0.000431,0.003408
13371000,0.0324,0.013523,0.002678,0.000431,0.003056
13372000,0.0324,0.013523,0.002678,0.000431,0.003291
13373000,0.0324,0.013523,0.002678,0.000431,0.003291
13374000,0.0324,0.013523,0.002678,0.000431,0.002821
13375000,0.0324,0.013523,0.002678,0.000431,0.003291
13376000,0.0324,0.013523,0.002678,0.000431,0.003291
13377000,0.0324,0.013523,0.002678,0.000431,0.003173
13378000,0.0324,0.013523,0.002678,0.000431,0.003056
13379000,0.0324,0.013523,0.002678,0.000431,0.003056
13380000,0.0324,0.013523,0.002678,0.000431,0.003173
13381000,0.0324,0.013523,0.002678,0.000431,0.002821
13382000,0.0324,0.013523,0.002678,0.000431,0.003173
13383000,0.0324,0.013523,0.002678,0.000431,0.003056
13384000,0.0324,0.013523,0.002678,0.000431,0.002821
13385000,0.0324,0.013523,0.002678,0.000431,0.003291
13386000,0.0324,0.013523,0.002678,0.000431,0.002938
13387000,0.0324,0.013523,0.002678,0.000431,0.003056
13388000,0.0324,0.013523,0.002678,0.000431,0.002821
13389000,0.0324,0.013523,0.002678,0.000431,0.002938
13390000,0.0324,0.013523,0.002678,0.000431,0.003173
13391000,0.0324,0.013523,0.002678,0.000431,0.002703
13392000,0.0324,0.013523,0.002678,0.000431,0.002938
13393000,0.0324,0.013523,0.002678,0.000431,0.003291
13394000,0.0324,0.013523,0.002678,0.000431,0.002703
13395000,0.0324,0.013523,0.002678,0.000431,0.002938
13396000,0.0324,0.013523,0.002678,0.000431,0.003173
13397000,0.0324,0.013523,0.002678,0.000431,0.002938
13398000,0.0324,0.013523,0.002678,0.000431,0.002703
13399000,0.0324,0.013523,0.002678,0.000431,0.003173
13400000,0.0324,0.013523,0.002678,0.000431,0.003173
13401000,0.0324,0.013523,0.002678,0.000431,0.002821
13402000,0.0324,0.013523,0.002678,0.000431,0.003056
13403000,0.0324,0.013523,0.002678,0.000431,0.002938
13404000,0.0324,0.013523,0.002678,0.000431,0.002703
13405000,0.0324,0.013523,0.002678,0.000431,0.003643
13406000,0.0324,0.013523,0.002678,0.000431,0.002703
13407000,0.0324,0.013523,0.002678,0.000431,0.002468
13408000,0.0324,0.013523,0.002678,0.000431,0.002586
13409000,0.0324,0.013523,0.002678,0.000431,0.002468
13410000,0.0324,0.013523,0.002678,0.000431,0.002468
13411000,0.0324,0.013523,0.002678,0.000431,0.002821
13412000,0.0324,0.013523,0.002678,0.000431,0.002468
13413000,0.0324,0.013523,0.002678,0.000431,0.002938
13414000,0.0324,0.013523,0.002678,0.000431,0.002586
13415000,0.0324,0.013523,0.002678,0.000431,0.002351
13416000,0.0324,0.013523,0.002678,0.000431,0.002586
13417000,0.0324,0.013523,0.002678,0.000431,0.002703
13418000,0.0324,0.013523,0.002678,0.000431,0.002351
13419000,0.0324,0.013523,0.002678,0.000431,0.003056
13420000,0.0324,0.013523,0.002678,0.000431,0.002468
13421000,0.0324,0.013523,0.002678,0.000431,0.002586
13422000,0.0324,0.013523,0.002678,0.000431,0.002586
13423000,0.0324,0.013523,0.002678,0.000431,0.002703
13424000,0.0324,0.013523,0.002678,0.000431,0.002821
13425000,0.0324,0.013523,0.002678,0.000431,0.002586
13426000,0.0324,0.013523,0.002678,0.000431,0.003056
13427000,0.0324,0.013523,0.002678,0.000431,0.002468
13428000,0.0324,0.013523,0.002678,0.000431,0.002586
13429000,0.0324,0.013523,0.002678,0.000431,0.002468
13430000,0.0324,0.013523,0.002678,0.000431,0.002586
13431000,0.0324,0.013523,0.002678,0.000431,0.002938
13432000,0.0324,0.013523,0.002678,0.000431,0.002586
13433000,0.0324,0.013523,0.002678,0.000431,0.002468
13434000,0.0324,0.013523,0.002678,0.000431,0.002938
13435000,0.0324,0.013523,0.002678,0.000431,0.002703
13436000,0.0324,0.013523,0.002678,0.000431,0.002468
13437000,0.0324,0.013523,0.002678,0.000431,0.002586
13438000,0.0324,0.013523,0.002678,0.000431,0.002586
13439000,0.0324,0.013523,0.002678,0.000431,0.002938
13440000,0.0324,0.013523,0.002678,0.000431,0.002586
13441000,0.0324,0.013523,0.002678,0.000431,0.002703
13442000,0.0324,0.013523,0.002678,0.000431,0.002821
13443000,0.0324,0.013523,0.002678,0.000431,0.002586
13444000,0.0324,0.013523,0.002678,0.000431,0.002703
13445000,0.0324,0.013523,0.002678,0.000431,0.002703
13446000,0.0324,0.013523,0.002678,0.000431,0.002586
13447000,0.0324,0.013523,0.002678,0.000431,0.002821
13448000,0.0324,0.013523,0.002678,0.000431,0.002351
13449000,0.0324,0.013523,0.002678,0.000431,0.002586
13450000,0.0324,0.013523,0.002678,0.000431,0.003173
13451000,0.0324,0.013523,0.002678,0.000431,0.002468
13452000,0.0324,0.013523,0.002678,0.000431,0.002821
13453000,0.0324,0.013523,0.002678,0.000431,0.002468
13454000,0.0324,0.013523,0.002678,0.000431,0.002703
13455000,0.0324,0.013523,0.002678,0.000431,0.002586
13456000,0.0324,0.013523,0.002678,0.000431,0.002938
13457000,0.0324,0.013523,0.002678,0.000431,0.002468
13458000,0.0324,0.013523,0.002678,0.000431,0.003056
13459000,0.0324,0.013523,0.002678,0.000431,0.002821
13460000,0.0324,0.013523,0.002678,0.000431,0.002586
13461000,0.0324,0.013523,0.002678,0.000431,0.002821
13462000,0.0324,0.013523,0.002678,0.000431,0.002468
13463000,0.0324,0.013523,0.002678,0.000431,0.002703
13464000,0.0324,0.013523,0.002678,0.000431,0.002703
13465000,0.0324,0.013523,0.002678,0.000431,0.002703
13466000,0.0324,0.013523,0.002678,0.000431,0.002468
13467000,0.0324,0.013523,0.002678,0.000431,0.002938
13468000,0.0324,0.013523,0.002678,0.000431,0.002468
13469000,0.0324,0.013523,0.002678,0.000431,0.002468
13470000,0.0324,0.013523,0.002678,0.000431,0.002586
13471000,0.0324,0.013523,0.002678,0.000431,0.002586
13472000,0.0324,0.013523,0.002678,0.000431,0.002938
13473000,0.0324,0.013523,0.002678,0.000431,0.002468
13474000,0.0324,0.013523,0.002678,0.000431,0.002468
13475000,0.0324,0.013523,0.002678,0.000431,0.002938
13476000,0.0324,0.013523,0.002678,0.000431,0.002586
13477000,0.0324,0.013523,0.002678,0.000431,0.002821
13478000,0.0324,0.013523,0.002678,0.000431,0.002938
13479000,0.0324,0.013523,0.002678,0.000431,0.002351
13480000,0.0324,0.013523,0.002678,0.000431,0.002938
13481000,0.0324,0.013523,0.002678,0.000431,0.002586
13482000,0.0324,0.013523,0.002678,0.000431,0.002586
13483000,0.0324,0.013523,0.002678,0.000431,0.003056
13484000,0.0324,0.013523,0.002678,0.000431,0.002468
13485000,0.0324,0.013523,0.002678,0.000431,0.002351
13486000,0.0324,0.013523,0.002678,0.000431,0.002821
13487000,0.0324,0.013523,0.002678,0.000431,0.002351
13488000,0.0324,0.013523,0.002678,0.000431,0.002938
13489000,0.0324,0.013523,0.002678,0.000431,0.002586
13490000,0.0324,0.013523,0.002678,0.000431,0.002703
13491000,0.0324,0.013523,0.002678,0.000431,0.002938
13492000,0.0324,0.013523,0.002678,0.000431,0.002586
13493000,0.0324,0.013523,0.002678,0.000431,0.002351
13494000,0.0324,0.013523,0.002678,0.000431,0.002938
13495000,0.0324,0.013523,0.002678,0.000431,0.002468
13496000,0.0324,0.013523,0.002678,0.000431,0.003056
13497000,0.0324,0.013523,0.002678,0.000431,0.002233
13498000,0.0324,0.013523,0.002678,0.000431,0.002586
13499000,0.0324,0.013523,0.002678,0.000431,0.003056
13500000,0.0324,0.013523,0.002678,0.000431,0.002468
13501000,0.0324,0.013523,0.002678,0.000431,0.002821
13502000,0.0324,0.013523,0.002678,0.000431,0.002938
13503000,0.0324,0.013523,0.002678,0.000431,0.002116
13504000,0.0324,0.013523,0.002678,0.000431,0.002821
13505000,0.0324,0.013523,0.002678,0.000431,0.002703
13506000,0.0324,0.013523,0.002678,0.000431,0.002351
13507000,0.0324,0.013523,0.002678,0.000431,0.002938
13508000,0.0324,0.013523,0.002678,0.000431,0.002468
13509000,0.0324,0.013523,0.002678,0.000431,0.002703
13510000,0.0324,0.013523,0.002678,0.000431,0.002703
13511000,0.0324,0.013523,0.002678,0.000431,0.001998
13512000,0.0324,0.013523,0.002678,0.000431,0.003056
13513000,0.0324,0.013523,0.002678,0.000431,0.002586
13514000,0.0324,0.013523,0.002678,0.000431,0.002468
13515000,0.0324,0.013523,0.002678,0.000431,0.002586
13516000,0.0324,0.013523,0.002678,0.000431,0.002468
13517000,0.0324,0.013523,0.002678,0.000431,0.002703
13518000,0.0324,0.013523,0.002678,0.000431,0.002586
13519000,0.0324,0.013523,0.002678,0.000431,0.002821
13520000,0.0324,0.013523,0.002678,0.000431,0.002468
13521000,0.0324,0.013523,0.002678,0.000431,0.002586
13522000,0.0324,0.013523,0.002678,0.000431,0.002468
13523000,0.0324,0.013523,0.002678,0.000431,0.002938
13524000,0.0324,0.013523,0.002678,0.000431,0.002468
13525000,0.0324,0.013523,0.002678,0.000431,0.003056
13526000,0.0324,0.013523,0.002678,0.000431,0.002586
13527000,0.0324,0.013523,0.002678,0.000431,0.002586
13528000,0.0324,0.013523,0.002678,0.000431,0.002703
13529000,0.0324,0.013523,0.002678,0.000431,0.002821
13530000,0.0324,0.013523,0.002678,0.000431,0.002821
13531000,0.0324,0.013523,0.002678,0.000431,0.002703
13532000,0.0324,0.013523,0.002678,0.000431,0.002586
13533000,0.0324,0.013523,0.002678,0.000431,0.002586
13534000,0.0324,0.013523,0.002678,0.000431,0.002938
13535000,0.0324,0.013523,0.002678,0.000431,0.002351
13536000,0.0324,0.013523,0.002678,0.000431,0.002586
13537000,0.0324,0.013523,0.002678,0.000431,0.002938
13538000,0.0324,0.013523,0.002678,0.000431,0.002351
13539000,0.0324,0.013523,0.002678,0.000431,0.002703
13540000,0.0324,0.013523,0.002678,0.000431,0.002586
13541000,0.0324,0.013523,0.002678,0.000431,0.002468
13542000,0.0324,0.013523,0.002678,0.000431,0.002703
13543000,0.0324,0.013523,0.002678,0.000431,0.002938
13544000,0.0324,0.013523,0.002678,0.000431,0.002821
13545000,0.0324,0.013523,0.002678,0.000431,0.002351
13546000,0.0324,0.013523,0.002678,0.000431,0.002938
13547000,0.0324,0.013523,0.002678,0.000431,0.003173
13548000,0.0324,0.013523,0.002678,0.000431,0.002233
13549000,0.0324,0.013523,0.002678,0.000431,0.002938
13550000,0.0324,0.013523,0.002678,0.000431,0.002938
13551000,0.0324,0.013523,0.002678,0.000431,0.002586
13552000,0.0324,0.013523,0.002678,0.000431,0.002233
13553000,0.0324,0.013523,0.002678,0.000431,0.003056
13554000,0.0324,0.013523,0.002678,0.000431,0.002821
13555000,0.0324,0.013523,0.002678,0.000431,0.002703
13556000,0.0324,0.013523,0.002678,0.000431,0.002703
13557000,0.0324,0.013523,0.002678,0.000431,0.002586
13558000,0.0324,0.013523,0.002678,0.000431,0.002821
13559000,0.0324,0.013523,0.002678,0.000431,0.002586
13560000,0.0324,0.013523,0.002678,0.000431,0.002703
13561000,0.0324,0.013523,0.002678,0.000431,0.002703
13562000,0.0324,0.013523,0.002678,0.000431,0.002468
13563000,0.0324,0.013523,0.002678,0.000431,0.002586
13564000,0.0324,0.013523,0.002678,0.000431,0.003056
13565000,0.0324,0.013523,0.002678,0.000431,0.002821
13566000,0.0324,0.013523,0.002678,0.000431,0.002233
13567000,0.0324,0.013523,0.002678,0.000431,0.002938
13568000,0.0324,0.013523,0.002678,0.000431,0.002821
13569000,0.0324,0.013523,0.002678,0.000431,0.002586
13570000,0.0324,0.013523,0.002678,0.000431,0.002468
13571000,0.0324,0.013523,0.002678,0.000431,0.002938
13572000,0.0324,0.013523,0.002678,0.000431,0.002703
13573000,0.0324,0.013523,0.002678,0.000431,0.002351
13574000,0.0324,0.013523,0.002678,0.000431,0.002821
13575000,0.0324,0.013523,0.002678,0.000431,0.002938
13576000,0.0324,0.013523,0.002678,0.000431,0.002116
13577000,0.0324,0.013523,0.002678,0.000431,0.002703
13578000,0.0324,0.013523,0.002678,0.000431,0.003173
13579000,0.0324,0.013523,0.002678,0.000431,0.002351
13580000,0.0324,0.013523,0.002678,0.000431,0.002468
13581000,0.0324,0.013523,0.002678,0.000431,0.002821
13582000,0.0324,0.013523,0.002678,0.000431,0.002938
13583000,0.0324,0.013523,0.002678,0.000431,0.002468
13584000,0.0324,0.013523,0.002678,0.000431,0.002703
13585000,0.0324,0.013523,0.002678,0.000431,0.003173
13586000,0.0324,0.013523,0.002678,0.000431,0.002351
13587000,0.0324,0.013523,0.002678,0.000431,0.002468
13588000,0.0324,0.013523,0.002678,0.000431,0.002821
13589000,0.0324,0.013523,0.002678,0.000431,0.002703
13590000,0.0324,0.013523,0.002678,0.000431,0.002821
13591000,0.0324,0.013523,0.002678,0.000431,0.002586
13592000,0.0324,0.013523,0.002678,0.000431,0.002703
13593000,0.0324,0.013523,0.002678,0.000431,0.002703
13594000,0.0324,0.013523,0.002678,0.000431,0.002703
13595000,0.0324,0.013523,0.002678,0.000431,0.002821
13596000,0.0324,0.013523,0.002678,0.000431,0.002351
13597000,0.0324,0.013523,0.002678,0.000431,0.002468
13598000,0.0324,0.013523,0.002678,0.000431,0.002703
13599000,0.0324,0.013523,0.002678,0.000431,0.003056
13600000,0.0324,0.013523,0.002678,0.000431,0.002116
13601000,0.0324,0.013523,0.002678,0.000431,0.002703
13602000,0.0324,0.013523,0.002678,0.000431,0.002938
13603000,0.0324,0.013523,0.002678,0.000431,0.002703
13604000,0.0324,0.013523,0.002678,0.000431,0.002116
13605000,0.0324,0.013523,0.002678,0.000431,0.002938
13606000,0.0324,0.013523,0.002678,0.000431,0.002703
13607000,0.0324,0.013523,0.002678,0.000431,0.002116
13608000,0.0324,0.013523,0.002678,0.000431,0.002586
13609000,0.0324,0.013523,0.002678,0.000431,0.002938
13610000,0.0324,0.013523,0.002678,0.000431,0.002703
13611000,0.0324,0.013523,0.002678,0.000431,0.002351
13612000,0.0324,0.013523,0.002678,0.000431,0.002468
13613000,0.0324,0.013523,0.002678,0.000431,0.002703
13614000,0.0324,0.013523,0.002678,0.000431,0.002468
13615000,0.0324,0.013523,0.002678,0.000431,0.002586
13616000,0.0324,0.013523,0.002678,0.000431,0.003173
13617000,0.0324,0.013523,0.002678,0.000431,0.002468
13618000,0.0324,0.013523,0.002678,0.000431,0.002586
13619000,0.0324,0.013523,0.002678,0.000431,0.002821
13620000,0.0324,0.013523,0.002678,0.000431,0.002821
13621000,0.0324,0.013523,0.002678,0.000431,0.002468
13622000,0.0324,0.013523,0.002678,0.000431,0.002703
13623000,0.0324,0.013523,0.002678,0.000431,0.002468
13624000,0.0324,0.013523,0.002678,0.000431,0.002821
13625000,0.0324,0.013523,0.002678,0.000431,0.002586
13626000,0.0324,0.013523,0.002678,0.000431,0.002703
13627000,0.0324,0.013523,0.002678,0.000431,0.002703
13628000,0.0324,0.013523,0.002678,0.000431,0.002351
13629000,0.0324,0.013523,0.002678,0.000431,0.002821
13630000,0.0324,0.013523,0.002678,0.000431,0.002703
13631000,0.0324,0.013523,0.002678,0.000431,0.002703
13632000,0.0324,0.013523,0.002678,0.000431,0.002703
13633000,0.0324,0.013523,0.002678,0.000431,0.002468
13634000,0.0324,0.013523,0.002678,0.000431,0.002821
13635000,0.0324,0.013523,0.002678,0.000431,0.002468
13636000,0.0324,0.013523,0.002678,0.000431,0.002821
13637000,0.0324,0.013523,0.002678,0.000431,0.002821
13638000,0.0324,0.013523,0.002678,0.000431,0.002468
13639000,0.0324,0.013523,0.002678,0.000431,0.002821
13640000,0.0324,0.013523,0.002678,0.000431,0.002938
13641000,0.0324,0.013523,0.002678,0.000431,0.002468
13642000,0.0324,0.013523,0.002678,0.000431,0.002703
13643000,0.0324,0.013523,0.002678,0.000431,0.002821
13644000,0.0324,0.013523,0.002678,0.000431,0.002821
13645000,0.0324,0.013523,0.002678,0.000431,0.002468
13646000,0.0324,0.013523,0.002678,0.000431,0.002586
13647000,0.0324,0.013523,0.002678,0.000431,0.002703
13648000,0.0324,0.013523,0.002678,0.000431,0.002821
13649000,0.0324,0.013523,0.002678,0.000431,0.002703
13650000,0.0324,0.013523,0.002678,0.000431,0.002821
13651000,0.0324,0.013523,0.002678,0.000431,0.002703
13652000,0.0324,0.013523,0.002678,0.000431,0.002233
13653000,0.0324,0.013523,0.002678,0.000431,0.002703
13654000,0.0324,0.013523,0.002678,0.000431,0.002821
13655000,0.0324,0.013523,0.002678,0.000431,0.002821
13656000,0.0324,0.013523,0.002678,0.000431,0.002586
13657000,0.0324,0.013523,0.002678,0.000431,0.002468
13658000,0.0324,0.013523,0.002678,0.000431,0.002703
13659000,0.0324,0.013523,0.002678,0.000431,0.002586
13660000,0.0324,0.013523,0.002678,0.000431,0.002703
13661000,0.0324,0.013523,0.002678,0.000431,0.002821
13662000,0.0324,0.013523,0.002678,0.000431,0.002233
13663000,0.0324,0.013523,0.002678,0.000431,0.002821
13664000,0.0324,0.013523,0.002678,0.000431,0.002821
13665000,0.0324,0.013523,0.002678,0.000431,0.002703
13666000,0.0324,0.013523,0.002678,0.000431,0.002586
13667000,0.0324,0.013523,0.002678,0.000431,0.002586
13668000,0.0324,0.013523,0.002678,0.000431,0.002821
13669000,0.0324,0.013523,0.002678,0.000431,0.002351
13670000,0.0324,0.013523,0.002678,0.000431,0.002586
13671000,0.0324,0.013523,0.002678,0.000431,0.003056
13672000,0.0324,0.013523,0.002678,0.000431,0.002586
13673000,0.0324,0.013523,0.002678,0.000431,0.002703
13674000,0.0324,0.013523,0.002678,0.000431,0.002703
13675000,0.0324,0.013523,0.002678,0.000431,0.002233
13676000,0.0324,0.013523,0.002678,0.000431,0.002821
13677000,0.0324,0.013523,0.002678,0.000431,0.002586
13678000,0.0324,0.013523,0.002678,0.000431,0.002821
13679000,0.0324,0.013523,0.002678,0.000431,0.002468
13680000,0.0324,0.013523,0.002678,0.000431,0.002586
13681000,0.0324,0.013523,0.002678,0.000431,0.002821
13682000,0.0324,0.013523,0.002678,0.000431,0.002586
13683000,0.0324,0.013523,0.002678,0.000431,0.002233
13684000,0.0324,0.013523,0.002678,0.000431,0.002703
13685000,0.0324,0.013523,0.002678,0.000431,0.002586
13686000,0.0324,0.013523,0.002678,0.000431,0.002116
13687000,0.0324,0.013523,0.002678,0.000431,0.002468
13688000,0.0324,0.013523,0.002678,0.000431,0.002938
13689000,0.0324,0.013523,0.002678,0.000431,0.002468
13690000,0.0324,0.013523,0.002678,0.000431,0.002703
13691000,0.0324,0.013523,0.002678,0.000431,0.002351
13692000,0.0324,0.013523,0.002678,0.000431,0.002703
13693000,0.0324,0.013523,0.002678,0.000431,0.002351
13694000,0.0324,0.013523,0.002678,0.000431,0.002938
13695000,0.0324,0.013523,0.002678,0.000431,0.002586
13696000,0.0324,0.013523,0.002678,0.000431,0.002351
13697000,0.0324,0.013523,0.002678,0.000431,0.002468
13698000,0.0324,0.013523,0.002678,0.000431,0.002938
13699000,0.0324,0.013523,0.002678,0.000431,0.002938
13700000,0.0324,0.013523,0.002678,0.000431,0.002233
13701000,0.0324,0.013523,0.002678,0.000431,0.002586
13702000,0.0324,0.013523,0.002678,0.000431,0.002938
13703000,0.0324,0.013523,0.002678,0.000431,0.002233
13704000,0.0324,0.013523,0.002678,0.000431,0.002351
13705000,0.0324,0.013523,0.002678,0.000431,0.003173
13706000,0.0324,0.013523,0.002678,0.000431,0.002233
13707000,0.0324,0.013523,0.002678,0.000431,0.002351
13708000,0.0324,0.013523,0.002678,0.000431,0.002821
13709000,0.0324,0.013523,0.002678,0.000431,0.002821
13710000,0.0324,0.013523,0.002678,0.000431,0.001998
13711000,0.0324,0.013523,0.002678,0.000431,0.002586
13712000,0.0324,0.013523,0.002678,0.000431,0.002468
13713000,0.0324,0.013523,0.002678,0.000431,0.002586
13714000,0.0324,0.013523,0.002678,0.000431,0.002586
13715000,0.0324,0.013523,0.002678,0.000431,0.002821
13716000,0.0324,0.013523,0.002678,0.000431,0.002703
13717000,0.0324,0.013523,0.002678,0.000431,0.001998
13718000,0.0324,0.013523,0.002678,0.000431,0.002821
13719000,0.0324,0.013523,0.002678,0.000431,0.002351
13720000,0.0324,0.013523,0.002678,0.000431,0.002468
13721000,0.0324,0.013523,0.002678,0.000431,0.002586
13722000,0.0324,0.013523,0.002678,0.000431,0.002468
13723000,0.0324,0.013523,0.002678,0.000431,0.002586
13724000,0.0324,0.013523,0.002678,0.000431,0.002233
13725000,0.0324,0.013523,0.002678,0.000431,0.002703
13726000,0.0324,0.013523,0.002678,0.000431,0.002586
13727000,0.0324,0.013523,0.002678,0.000431,0.002821
13728000,0.0324,0.013523,0.002678,0.000431,0.002233
13729000,0.0324,0.013523,0.002678,0.000431,0.002821
13730000,0.0324,0.013523,0.002678,0.000431,0.002351
13731000,0.0324,0.013523,0.002678,0.000431,0.002468
13732000,0.0324,0.013523,0.002678,0.000431,0.002586
13733000,0.0324,0.013523,0.002678,0.000431,0.003056
13734000,0.0324,0.013523,0.002678,0.000431,0.002351
13735000,0.0324,0.013523,0.002678,0.000431,0.002703
13736000,0.0324,0.013523,0.002678,0.000431,0.002468
13737000,0.0324,0.013523,0.002678,0.000431,0.002468
13738000,0.0324,0.013523,0.002678,0.000431,0.002468
13739000,0.0324,0.013523,0.002678,0.000431,0.002703
13740000,0.0324,0.013523,0.002678,0.000431,0.002821
13741000,0.0324,0.013523,0.002678,0.000431,0.002351
13742000,0.0324,0.013523,0.002678,0.000431,0.002468
13743000,0.0324,0.013523,0.002678,0.000431,0.002938
13744000,0.0324,0.013523,0.002678,0.000431,0.002233
13745000,0.0324,0.013523,0.002678,0.000431,0.002703
13746000,0.0324,0.013523,0.002678,0.000431,0.002468
13747000,0.0324,0.013523,0.002678,0.000431,0.002821
13748000,0.0324,0.013523,0.002678,0.000431,0.002116
13749000,0.0324,0.013523,0.002678,0.000431,0.002703
13750000,0.0324,0.013523,0.002678,0.000431,0.002703
13751000,0.0324,0.013523,0.002678,0.000431,0.002468
13752000,0.0324,0.013523,0.002678,0.000431,0.002703
13753000,0.0324,0.013523,0.002678,0.000431,0.002468
13754000,0.0324,0.013523,0.002678,0.000431,0.002586
13755000,0.0324,0.013523,0.002678,0.000431,0.002116
13756000,0.0324,0.013523,0.002678,0.000431,0.002938
13757000,0.0324,0.013523,0.002678,0.000431,0.002938
13758000,0.0324,0.013523,0.002678,0.000431,0.002703
13759000,0.0324,0.013523,0.002678,0.000431,0.002233
13760000,0.0324,0.013523,0.002678,0.000431,0.002821
13761000,0.0324,0.013523,0.002678,0.000431,0.002116
13762000,0.0324,0.013523,0.002678,0.000431,0.002703
13763000,0.0324,0.013523,0.002678,0.000431,0.002586
13764000,0.0324,0.013523,0.002678,0.000431,0.002468
13765000,0.0324,0.013523,0.002678,0.000431,0.002703
13766000,0.0324,0.013523,0.002678,0.000431,0.002468
13767000,0.0324,0.013523,0.002678,0.000431,0.002351
13768000,0.0324,0.013523,0.002678,0.000431,0.002351
13769000,0.0324,0.013523,0.002678,0.000431,0.002351
13770000,0.0324,0.013523,0.002678,0.000431,0.003056
13771000,0.0324,0.013523,0.002678,0.000431,0.002586
13772000,0.0324,0.013523,0.002678,0.000431,0.001998
13773000,0.0324,0.013523,0.002678,0.000431,0.002351
13774000,0.0324,0.013523,0.002678,0.000431,0.002703
13775000,0.0324,0.013523,0.002678,0.000431,0.002116
13776000,0.0324,0.013523,0.002678,0.000431,0.002468
13777000,0.0324,0.013523,0.002678,0.000431,0.002468
13778000,0.0324,0.013523,0.002678,0.000431,0.002821
13779000,0.0324,0.013523,0.002678,0.000431,0.002233
13780000,0.0324,0.013523,0.002678,0.000431,0.002821
13781000,0.0324,0.013523,0.002678,0.000431,0.002703
13782000,0.0324,0.013523,0.002678,0.000431,0.002586
13783000,0.0324,0.013523,0.002678,0.000431,0.002468
13784000,0.0324,0.013523,0.002678,0.000431,0.002703
13785000,0.0324,0.013523,0.002678,0.000431,0.002468
13786000,0.0324,0.013523,0.002678,0.000431,0.002233
13787000,0.0324,0.013523,0.002678,0.000431,0.002938
13788000,0.0324,0.013523,0.002678,0.000431,0.002821
13789000,0.0324,0.013523,0.002678,0.000431,0.002468
13790000,0.0324,0.013523,0.002678,0.000431,0.002351
13791000,0.0324,0.013523,0.002678,0.000431,0.002586
13792000,0.0324,0.013523,0.002678,0.000431,0.002116
13793000,0.0324,0.013523,0.002678,0.000431,0.002586
13794000,0.0324,0.013523,0.002678,0.000431,0.002938
13795000,0.0324,0.013523,0.002678,0.000431,0.002468
13796000,0.0324,0.013523,0.002678,0.000431,0.002703
13797000,0.0324,0.013523,0.002678,0.000431,0.002468
13798000,0.0324,0.013523,0.002678,0.000431,0.002938
13799000,0.0324,0.013523,0.002678,0.000431,0.002468
13800000,0.0324,0.013523,0.002678,0.000431,0.002703
13801000,0.0324,0.013523,0.002678,0.000431,0.002703
13802000,0.0324,0.013523,0.002678,0.000431,0.002586
13803000,0.0324,0.013523,0.002678,0.000431,0.002468
13804000,0.0324,0.013523,0.002678,0.000431,0.002351
13805000,0.0324,0.013523,0.002678,0.000431,0.002938
13806000,0.0324,0.013523,0.002678,0.000431,0.002586
13807000,0.0324,0.013523,0.002678,0.000431,0.002468
13808000,0.0324,0.013523,0.002678,0.000431,0.002821
13809000,0.0324,0.013523,0.002678,0.000431,0.002821
13810000,0.0324,0.013523,0.002678,0.000431,0.001998
13811000,0.0324,0.013523,0.002678,0.000431,0.002821
13812000,0.0324,0.013523,0.002678,0.000431,0.002351
13813000,0.0324,0.013523,0.002678,0.000431,0.002703
13814000,0.0324,0.013523,0.002678,0.000431,0.002703
13815000,0.0324,0.013523,0.002678,0.000431,0.002586
13816000,0.0324,0.013523,0.002678,0.000431,0.002468
13817000,0.0324,0.013523,0.002678,0.000431,0.002468
13818000,0.0324,0.013523,0.002678,0.000431,0.002586
13819000,0.0324,0.013523,0.002678,0.000431,0.003056
13820000,0.0324,0.013523,0.002678,0.000431,0.002233
13821000,0.0324,0.013523,0.002678,0.000431,0.002821
13822000,0.0324,0.013523,0.002678,0.000431,0.002703
13823000,0.0324,0.013523,0.002678,0.000431,0.002468
13824000,0.0324,0.013523,0.002678,0.000431,0.002468
13825000,0.0324,0.013523,0.002678,0.000431,0.002586
13826000,0.0324,0.013523,0.002678,0.000431,0.002703
13827000,0.0324,0.013523,0.002678,0.000431,0.002351
13828000,0.0324,0.013523,0.002678,0.000431,0.002351
13829000,0.0324,0.013523,0.002678,0.000431,0.003291
13830000,0.0324,0.013523,0.002678,0.000431,0.001998
13831000,0.0324,0.013523,0.002678,0.000431,0.002821
13832000,0.0324,0.013523,0.002678,0.000431,0.002586
13833000,0.0324,0.013523,0.002678,0.000431,0.003173
13834000,0.0324,0.013523,0.002678,0.000431,0.002233
13835000,0.0324,0.013523,0.002678,0.000431,0.002703
13836000,0.0324,0.013523,0.002678,0.000431,0.002703
13837000,0.0324,0.013523,0.002678,0.000431,0.002703
13838000,0.0324,0.013523,0.002678,0.000431,0.002586
13839000,0.0324,0.013523,0.002678,0.000431,0.002938
13840000,0.0324,0.013523,0.002678,0.000431,0.002703
13841000,0.0324,0.013523,0.002678,0.000431,0.002468
13842000,0.0324,0.013523,0.002678,0.000431,0.002468
13843000,0.0324,0.013523,0.002678,0.000431,0.002938
13844000,0.0324,0.013523,0.002678,0.000431,0.002468
13845000,0.0324,0.013523,0.002678,0.000431,0.002703
13846000,0.0324,0.013523,0.002678,0.000431,0.002821
13847000,0.0324,0.013523,0.002678,0.000431,0.003056
13848000,0.0324,0.013523,0.002678,0.000431,0.001880
13849000,0.0324,0.013523,0.002678,0.000431,0.002703
13850000,0.0324,0.013523,0.002678,0.000431,0.002703
13851000,0.0324,0.013523,0.002678,0.000431,0.002703
13852000,0.0324,0.013523,0.002678,0.000431,0.002351
13853000,0.0324,0.013523,0.002678,0.000431,0.002821
13854000,0.0324,0.013523,0.002678,0.000431,0.002703
13855000,0.0324,0.013523,0.002678,0.000431,0.002468
13856000,0.0324,0.013523,0.002678,0.000431,0.002468
13857000,0.0324,0.013523,0.002678,0.000431,0.002938
13858000,0.0324,0.013523,0.002678,0.000431,0.002468
13859000,0.0324,0.013523,0.002678,0.000431,0.002586
13860000,0.0324,0.013523,0.002678,0.000431,0.002351
13861000,0.0324,0.013523,0.002678,0.000431,0.002351
13862000,0.0324,0.013523,0.002678,0.000431,0.002351
13863000,0.0324,0.013523,0.002678,0.000431,0.002233
13864000,0.0324,0.013523,0.002678,0.000431,0.002586
13865000,0.0324,0.013523,0.002678,0.000431,0.002351
13866000,0.0324,0.013523,0.002678,0.000431,0.002586
13867000,0.0324,0.013523,0.002678,0.000431,0.002586
13868000,0.0324,0.013523,0.002678,0.000431,0.002703
13869000,0.0324,0.013523,0.002678,0.000431,0.002586
13870000,0.0324,0.013523,0.002678,0.000431,0.002703
13871000,0.0324,0.013523,0.002678,0.000431,0.002938
13872000,0.0324,0.013523,0.002678,0.000431,0.002468
13873000,0.0324,0.013523,0.002678,0.000431,0.002351
13874000,0.0324,0.013523,0.002678,0.000431,0.002703
13875000,0.0324,0.013523,0.002678,0.000431,0.002351
13876000,0.0324,0.013523,0.002678,0.000431,0.002468
13877000,0.0324,0.013523,0.002678,0.000431,0.002703
13878000,0.0324,0.013523,0.002678,0.000431,0.002586
13879000,0.0324,0.013523,0.002678,0.000431,0.002351
13880000,0.0324,0.013523,0.002678,0.000431,0.002821
13881000,0.0324,0.013523,0.002678,0.000431,0.002116
13882000,0.0324,0.013523,0.002678,0.000431,0.002821
13883000,0.0324,0.013523,0.002678,0.000431,0.002468
13884000,0.0324,0.013523,0.002678,0.000431,0.002586
13885000,0.0324,0.013523,0.002678,0.000431,0.002586
13886000,0.0324,0.013523,0.002678,0.000431,0.002351
13887000,0.0324,0.013523,0.002678,0.000431,0.002351
13888000,0.0324,0.013523,0.002678,0.000431,0.002821
13889000,0.0324,0.013523,0.002678,0.000431,0.002351
13890000,0.0324,0.013523,0.002678,0.000431,0.002468
13891000,0.0324,0.013523,0.002678,0.000431,0.002703
13892000,0.0324,0.013523,0.002678,0.000431,0.002468
13893000,0.0324,0.013523,0.002678,0.000431,0.002468
13894000,0.0324,0.013523,0.002678,0.000431,0.002703
13895000,0.0324,0.013523,0.002678,0.000431,0.003056
13896000,0.0324,0.013523,0.002678,0.000431,0.002116
13897000,0.0324,0.013523,0.002678,0.000431,0.001880
13898000,0.0324,0.013523,0.002678,0.000431,0.001998
13899000,0.0324,0.013523,0.002678,0.000431,0.001998
13900000,0.0324,0.013523,0.002678,0.000431,0.001880
13901000,0.0324,0.013523,0.002678,0.000431,0.001645
13902000,0.0324,0.013523,0.002678,0.000431,0.001645
13903000,0.0324,0.013523,0.002678,0.000431,0.001880
13904000,0.0324,0.013523,0.002678,0.000431,0.002116
13905000,0.0324,0.013523,0.002678,0.000431,0.001998
13906000,0.0324,0.013523,0.002678,0.000431,0.001880
13907000,0.0324,0.013523,0.002678,0.000431,0.001763
13908000,0.0324,0.013523,0.002678,0.000431,0.001880
13909000,0.0324,0.013523,0.002678,0.000431,0.002116
13910000,0.0324,0.013523,0.002678,0.000431,0.001763
13911000,0.0324,0.013523,0.002678,0.000431,0.002116
13912000,0.0324,0.013523,0.002678,0.000431,0.001645
13913000,0.0324,0.013523,0.002678,0.000431,0.001998
13914000,0.0324,0.013523,0.002678,0.000431,0.001763
13915000,0.0324,0.013523,0.002678,0.000431,0.001998
13916000,0.0324,0.013523,0.002678,0.000431,0.001763
13917000,0.0324,0.013523,0.002678,0.000431,0.002116
13918000,0.0324,0.013523,0.002678,0.000431,0.001998
13919000,0.0324,0.013523,0.002678,0.000431,0.001528
13920000,0.0324,0.013523,0.002678,0.000431,0.001880
13921000,0.0324,0.013523,0.002678,0.000431,0.001880
13922000,0.0324,0.013523,0.002678,0.000431,0.001880
13923000,0.0324,0.013523,0.002678,0.000431,0.001998
13924000,0.0324,0.013523,0.002678,0.000431,0.001528
13925000,0.0324,0.013523,0.002678,0.000431,0.001998
13926000,0.0324,0.013523,0.002678,0.000431,0.001528
13927000,0.0324,0.013523,0.002678,0.000431,0.002116
13928000,0.0324,0.013523,0.002678,0.000431,0.001645
13929000,0.0324,0.013523,0.002678,0.000431,0.002116
13930000,0.0324,0.013523,0.002678,0.000431,0.001528
13931000,0.0324,0.013523,0.002678,0.000431,0.001998
13932000,0.0324,0.013523,0.002678,0.000431,0.001880
13933000,0.0324,0.013523,0.002678,0.000431,0.001645
13934000,0.0324,0.013523,0.002678,0.000431,0.001763
13935000,0.0324,0.013523,0.002678,0.000431,0.001763
13936000,0.0324,0.013523,0.002678,0.000431,0.001645
13937000,0.0324,0.013523,0.002678,0.000431,0.001998
13938000,0.0324,0.013523,0.002678,0.000431,0.002116
13939000,0.0324,0.013523,0.002678,0.000431,0.001880
13940000,0.0324,0.013523,0.002678,0.000431,0.001763
13941000,0.0324,0.013523,0.002678,0.000431,0.001880
13942000,0.0324,0.013523,0.002678,0.000431,0.001880
13943000,0.0324,0.013523,0.002678,0.000431,0.001998
13944000,0.0324,0.013523,0.002678,0.000431,0.001763
13945000,0.0324,0.013523,0.002678,0.000431,0.002116
13946000,0.0324,0.013523,0.002678,0.000431,0.001410
13947000,0.0324,0.013523,0.002678,0.000431,0.001998
13948000,0.0324,0.013523,0.002678,0.000431,0.001645
13949000,0.0324,0.013523,0.002678,0.000431,0.001528
13950000,0.0324,0.013523,0.002678,0.000431,0.001763
13951000,0.0324,0.013523,0.002678,0.000431,0.002116
13952000,0.0324,0.013523,0.002678,0.000431,0.002116
13953000,0.0324,0.013523,0.002678,0.000431,0.001763
13954000,0.0324,0.013523,0.002678,0.000431,0.001763
13955000,0.0324,0.013523,0.002678,0.000431,0.001880
13956000,0.0324,0.013523,0.002678,0.000431,0.001998
13957000,0.0324,0.013523,0.002678,0.000431,0.001763
13958000,0.0324,0.013523,0.002678,0.000431,0.002116
13959000,0.0324,0.013523,0.002678,0.000431,0.001880
13960000,0.0324,0.013523,0.002678,0.000431,0.001880
13961000,0.0324,0.013523,0.002678,0.000431,0.001880
13962000,0.0324,0.013523,0.002678,0.000431,0.002233
13963000,0.0324,0.013523,0.002678,0.000431,0.001763
13964000,0.0324,0.013523,0.002678,0.000431,0.001645
13965000,0.0324,0.013523,0.002678,0.000431,0.001880
13966000,0.0324,0.013523,0.002678,0.000431,0.001880
13967000,0.0324,0.013523,0.002678,0.000431,0.001763
13968000,0.0324,0.013523,0.002678,0.000431,0.001763
13969000,0.0324,0.013523,0.002678,0.000431,0.001880
13970000,0.0324,0.013523,0.002678,0.000431,0.001880
13971000,0.0324,0.013523,0.002678,0.000431,0.001528
13972000,0.0324,0.013523,0.002678,0.000431,0.002351
13973000,0.0324,0.013523,0.002678,0.000431,0.001645
13974000,0.0324,0.013523,0.002678,0.000431,0.001763
13975000,0.0324,0.013523,0.002678,0.000431,0.001645
13976000,0.0324,0.013523,0.002678,0.000431,0.002116
13977000,0.0324,0.013523,0.002678,0.000431,0.001645
13978000,0.0324,0.013523,0.002678,0.000431,0.001880
13979000,0.0324,0.013523,0.002678,0.000431,0.001645
13980000,0.0324,0.013523,0.002678,0.000431,0.001880
13981000,0.0324,0.013523,0.002678,0.000431,0.001528
13982000,0.0324,0.013523,0.002678,0.000431,0.001880
13983000,0.0324,0.013523,0.002678,0.000431,0.001998
13984000,0.0324,0.013523,0.002678,0.000431,0.001763
13985000,0.0324,0.013523,0.002678,0.000431,0.001763
13986000,0.0324,0.013523,0.002678,0.000431,0.001998
13987000,0.0324,0.013523,0.002678,0.000431,0.001410
13988000,0.0324,0.013523,0.002678,0.000431,0.001763
13989000,0.0324,0.013523,0.002678,0.000431,0.001880
13990000,0.0324,0.013523,0.002678,0.000431,0.001998
13991000,0.0324,0.013523,0.002678,0.000431,0.001645
13992000,0.0324,0.013523,0.002678,0.000431,0.001645
13993000,0.0324,0.013523,0.002678,0.000431,0.001880
13994000,0.0324,0.013523,0.002678,0.000431,0.001880
13995000,0.0324,0.013523,0.002678,0.000431,0.001528
13996000,0.0324,0.013523,0.002678,0.000431,0.001880
13997000,0.0324,0.013523,0.002678,0.000431,0.002233
13998000,0.0324,0.013523,0.002678,0.000431,0.001645
13999000,0.0324,0.013523,0.002678,0.000431,0.001528
