Cycle,Area(mm^2),PeakDynamic(W),SubthresholdLeakage(W),GateLeakage(W),RunTimeDynamic(W)
3000000,0.0324,0.013523,0.002678,0.000431,0.002586
3001000,0.0324,0.013523,0.002678,0.000431,0.002586
3002000,0.0324,0.013523,0.002678,0.000431,0.002586
3003000,0.0324,0.013523,0.002678,0.000431,0.002703
3004000,0.0324,0.013523,0.002678,0.000431,0.002468
3005000,0.0324,0.013523,0.002678,0.000431,0.002586
3006000,0.0324,0.013523,0.002678,0.000431,0.002468
3007000,0.0324,0.013523,0.002678,0.000431,0.002468
3008000,0.0324,0.013523,0.002678,0.000431,0.002468
3009000,0.0324,0.013523,0.002678,0.000431,0.002351
3010000,0.0324,0.013523,0.002678,0.000431,0.002468
3011000,0.0324,0.013523,0.002678,0.000431,0.002586
3012000,0.0324,0.013523,0.002678,0.000431,0.002468
3013000,0.0324,0.013523,0.002678,0.000431,0.002703
3014000,0.0324,0.013523,0.002678,0.000431,0.002821
3015000,0.0324,0.013523,0.002678,0.000431,0.002586
3016000,0.0324,0.013523,0.002678,0.000431,0.002938
3017000,0.0324,0.013523,0.002678,0.000431,0.002351
3018000,0.0324,0.013523,0.002678,0.000431,0.002233
3019000,0.0324,0.013523,0.002678,0.000431,0.002938
3020000,0.0324,0.013523,0.002678,0.000431,0.002821
3021000,0.0324,0.013523,0.002678,0.000431,0.002586
3022000,0.0324,0.013523,0.002678,0.000431,0.002351
3023000,0.0324,0.013523,0.002678,0.000431,0.002586
3024000,0.0324,0.013523,0.002678,0.000431,0.002586
3025000,0.0324,0.013523,0.002678,0.000431,0.002703
3026000,0.0324,0.013523,0.002678,0.000431,0.002703
3027000,0.0324,0.013523,0.002678,0.000431,0.002468
3028000,0.0324,0.013523,0.002678,0.000431,0.002821
3029000,0.0324,0.013523,0.002678,0.000431,0.002703
3030000,0.0324,0.013523,0.002678,0.000431,0.002468
3031000,0.0324,0.013523,0.002678,0.000431,0.002116
3032000,0.0324,0.013523,0.002678,0.000431,0.001763
3033000,0.0324,0.013523,0.002678,0.000431,0.001880
3034000,0.0324,0.013523,0.002678,0.000431,0.001998
3035000,0.0324,0.013523,0.002678,0.000431,0.001880
3036000,0.0324,0.013523,0.002678,0.000431,0.002116
3037000,0.0324,0.013523,0.002678,0.000431,0.001998
3038000,0.0324,0.013523,0.002678,0.000431,0.001998
3039000,0.0324,0.013523,0.002678,0.000431,0.001998
3040000,0.0324,0.013523,0.002678,0.000431,0.002233
3041000,0.0324,0.013523,0.002678,0.000431,0.001998
3042000,0.0324,0.013523,0.002678,0.000431,0.002233
3043000,0.0324,0.013523,0.002678,0.000431,0.001763
3044000,0.0324,0.013523,0.002678,0.000431,0.001645
3045000,0.0324,0.013523,0.002678,0.000431,0.001763
3046000,0.0324,0.013523,0.002678,0.000431,0.001998
3047000,0.0324,0.013523,0.002678,0.000431,0.002116
3048000,0.0324,0.013523,0.002678,0.000431,0.002116
3049000,0.0324,0.013523,0.002678,0.000431,0.002116
3050000,0.0324,0.013523,0.002678,0.000431,0.001880
3051000,0.0324,0.013523,0.002678,0.000431,0.001880
3052000,0.0324,0.013523,0.002678,0.000431,0.001645
3053000,0.0324,0.013523,0.002678,0.000431,0.001763
3054000,0.0324,0.013523,0.002678,0.000431,0.001998
3055000,0.0324,0.013523,0.002678,0.000431,0.001998
3056000,0.0324,0.013523,0.002678,0.000431,0.001763
3057000,0.0324,0.013523,0.002678,0.000431,0.002351
3058000,0.0324,0.013523,0.002678,0.000431,0.001763
3059000,0.0324,0.013523,0.002678,0.000431,0.001645
3060000,0.0324,0.013523,0.002678,0.000431,0.001763
3061000,0.0324,0.013523,0.002678,0.000431,0.001880
3062000,0.0324,0.013523,0.002678,0.000431,0.001880
3063000,0.0324,0.013523,0.002678,0.000431,0.001998
3064000,0.0324,0.013523,0.002678,0.000431,0.001763
3065000,0.0324,0.013523,0.002678,0.000431,0.001763
3066000,0.0324,0.013523,0.002678,0.000431,0.001763
3067000,0.0324,0.013523,0.002678,0.000431,0.001880
3068000,0.0324,0.013523,0.002678,0.000431,0.002116
3069000,0.0324,0.013523,0.002678,0.000431,0.001528
3070000,0.0324,0.013523,0.002678,0.000431,0.001880
3071000,0.0324,0.013523,0.002678,0.000431,0.001880
3072000,0.0324,0.013523,0.002678,0.000431,0.002116
3073000,0.0324,0.013523,0.002678,0.000431,0.001645
3074000,0.0324,0.013523,0.002678,0.000431,0.001880
3075000,0.0324,0.013523,0.002678,0.000431,0.001998
3076000,0.0324,0.013523,0.002678,0.000431,0.001998
3077000,0.0324,0.013523,0.002678,0.000431,0.001528
3078000,0.0324,0.013523,0.002678,0.000431,0.002116
3079000,0.0324,0.013523,0.002678,0.000431,0.001998
3080000,0.0324,0.013523,0.002678,0.000431,0.001880
3081000,0.0324,0.013523,0.002678,0.000431,0.001998
3082000,0.0324,0.013523,0.002678,0.000431,0.001763
3083000,0.0324,0.013523,0.002678,0.000431,0.001645
3084000,0.0324,0.013523,0.002678,0.000431,0.002233
3085000,0.0324,0.013523,0.002678,0.000431,0.001880
3086000,0.0324,0.013523,0.002678,0.000431,0.001998
3087000,0.0324,0.013523,0.002678,0.000431,0.001880
3088000,0.0324,0.013523,0.002678,0.000431,0.001880
3089000,0.0324,0.013523,0.002678,0.000431,0.001880
3090000,0.0324,0.013523,0.002678,0.000431,0.001880
3091000,0.0324,0.013523,0.002678,0.000431,0.002116
3092000,0.0324,0.013523,0.002678,0.000431,0.001998
3093000,0.0324,0.013523,0.002678,0.000431,0.001763
3094000,0.0324,0.013523,0.002678,0.000431,0.001880
3095000,0.0324,0.013523,0.002678,0.000431,0.001998
3096000,0.0324,0.013523,0.002678,0.000431,0.001763
3097000,0.0324,0.013523,0.002678,0.000431,0.001880
3098000,0.0324,0.013523,0.002678,0.000431,0.001645
3099000,0.0324,0.013523,0.002678,0.000431,0.002351
3100000,0.0324,0.013523,0.002678,0.000431,0.001880
3101000,0.0324,0.013523,0.002678,0.000431,0.001763
3102000,0.0324,0.013523,0.002678,0.000431,0.001880
3103000,0.0324,0.013523,0.002678,0.000431,0.002116
3104000,0.0324,0.013523,0.002678,0.000431,0.001880
3105000,0.0324,0.013523,0.002678,0.000431,0.001998
3106000,0.0324,0.013523,0.002678,0.000431,0.001880
3107000,0.0324,0.013523,0.002678,0.000431,0.001880
3108000,0.0324,0.013523,0.002678,0.000431,0.002116
3109000,0.0324,0.013523,0.002678,0.000431,0.001763
3110000,0.0324,0.013523,0.002678,0.000431,0.001763
3111000,0.0324,0.013523,0.002678,0.000431,0.001880
3112000,0.0324,0.013523,0.002678,0.000431,0.001880
3113000,0.0324,0.013523,0.002678,0.000431,0.002116
3114000,0.0324,0.013523,0.002678,0.000431,0.001880
3115000,0.0324,0.013523,0.002678,0.000431,0.001410
3116000,0.0324,0.013523,0.002678,0.000431,0.001998
3117000,0.0324,0.013523,0.002678,0.000431,0.001998
3118000,0.0324,0.013523,0.002678,0.000431,0.001880
3119000,0.0324,0.013523,0.002678,0.000431,0.001880
3120000,0.0324,0.013523,0.002678,0.000431,0.001880
3121000,0.0324,0.013523,0.002678,0.000431,0.001880
3122000,0.0324,0.013523,0.002678,0.000431,0.001998
3123000,0.0324,0.013523,0.002678,0.000431,0.001763
3124000,0.0324,0.013523,0.002678,0.000431,0.001645
3125000,0.0324,0.013523,0.002678,0.000431,0.001998
3126000,0.0324,0.013523,0.002678,0.000431,0.002116
3127000,0.0324,0.013523,0.002678,0.000431,0.002116
3128000,0.0324,0.013523,0.002678,0.000431,0.001998
3129000,0.0324,0.013523,0.002678,0.000431,0.002116
3130000,0.0324,0.013523,0.002678,0.000431,0.001763
3131000,0.0324,0.013523,0.002678,0.000431,0.001763
3132000,0.0324,0.013523,0.002678,0.000431,0.002233
3133000,0.0324,0.013523,0.002678,0.000431,0.001880
3134000,0.0324,0.013523,0.002678,0.000431,0.001410
3135000,0.0324,0.013523,0.002678,0.000431,0.002116
3136000,0.0324,0.013523,0.002678,0.000431,0.001763
3137000,0.0324,0.013523,0.002678,0.000431,0.001763
3138000,0.0324,0.013523,0.002678,0.000431,0.002351
3139000,0.0324,0.013523,0.002678,0.000431,0.001528
3140000,0.0324,0.013523,0.002678,0.000431,0.001880
3141000,0.0324,0.013523,0.002678,0.000431,0.001880
3142000,0.0324,0.013523,0.002678,0.000431,0.001880
3143000,0.0324,0.013523,0.002678,0.000431,0.001763
3144000,0.0324,0.013523,0.002678,0.000431,0.001998
3145000,0.0324,0.013523,0.002678,0.000431,0.001880
3146000,0.0324,0.013523,0.002678,0.000431,0.001645
3147000,0.0324,0.013523,0.002678,0.000431,0.002116
3148000,0.0324,0.013523,0.002678,0.000431,0.001528
3149000,0.0324,0.013523,0.002678,0.000431,0.001645
3150000,0.0324,0.013523,0.002678,0.000431,0.001645
3151000,0.0324,0.013523,0.002678,0.000431,0.001528
3152000,0.0324,0.013523,0.002678,0.000431,0.001645
3153000,0.0324,0.013523,0.002678,0.000431,0.002116
3154000,0.0324,0.013523,0.002678,0.000431,0.001998
3155000,0.0324,0.013523,0.002678,0.000431,0.001528
3156000,0.0324,0.013523,0.002678,0.000431,0.001880
3157000,0.0324,0.013523,0.002678,0.000431,0.001998
3158000,0.0324,0.013523,0.002678,0.000431,0.002116
3159000,0.0324,0.013523,0.002678,0.000431,0.001763
3160000,0.0324,0.013523,0.002678,0.000431,0.001880
3161000,0.0324,0.013523,0.002678,0.000431,0.001998
3162000,0.0324,0.013523,0.002678,0.000431,0.002233
3163000,0.0324,0.013523,0.002678,0.000431,0.001528
3164000,0.0324,0.013523,0.002678,0.000431,0.002116
3165000,0.0324,0.013523,0.002678,0.000431,0.001998
3166000,0.0324,0.013523,0.002678,0.000431,0.002116
3167000,0.0324,0.013523,0.002678,0.000431,0.001880
3168000,0.0324,0.013523,0.002678,0.000431,0.001998
3169000,0.0324,0.013523,0.002678,0.000431,0.001880
3170000,0.0324,0.013523,0.002678,0.000431,0.001763
3171000,0.0324,0.013523,0.002678,0.000431,0.001880
3172000,0.0324,0.013523,0.002678,0.000431,0.001880
3173000,0.0324,0.013523,0.002678,0.000431,0.001998
3174000,0.0324,0.013523,0.002678,0.000431,0.001528
3175000,0.0324,0.013523,0.002678,0.000431,0.001763
3176000,0.0324,0.013523,0.002678,0.000431,0.001763
3177000,0.0324,0.013523,0.002678,0.000431,0.001645
3178000,0.0324,0.013523,0.002678,0.000431,0.001528
3179000,0.0324,0.013523,0.002678,0.000431,0.002116
3180000,0.0324,0.013523,0.002678,0.000431,0.001645
3181000,0.0324,0.013523,0.002678,0.000431,0.001763
3182000,0.0324,0.013523,0.002678,0.000431,0.001998
3183000,0.0324,0.013523,0.002678,0.000431,0.001528
3184000,0.0324,0.013523,0.002678,0.000431,0.001645
3185000,0.0324,0.013523,0.002678,0.000431,0.001880
3186000,0.0324,0.013523,0.002678,0.000431,0.001763
3187000,0.0324,0.013523,0.002678,0.000431,0.001880
3188000,0.0324,0.013523,0.002678,0.000431,0.002116
3189000,0.0324,0.013523,0.002678,0.000431,0.001763
3190000,0.0324,0.013523,0.002678,0.000431,0.002116
3191000,0.0324,0.013523,0.002678,0.000431,0.001880
3192000,0.0324,0.013523,0.002678,0.000431,0.002116
3193000,0.0324,0.013523,0.002678,0.000431,0.001645
3194000,0.0324,0.013523,0.002678,0.000431,0.001998
3195000,0.0324,0.013523,0.002678,0.000431,0.001645
3196000,0.0324,0.013523,0.002678,0.000431,0.001998
3197000,0.0324,0.013523,0.002678,0.000431,0.001645
3198000,0.0324,0.013523,0.002678,0.000431,0.001880
3199000,0.0324,0.013523,0.002678,0.000431,0.001880
3200000,0.0324,0.013523,0.002678,0.000431,0.001763
3201000,0.0324,0.013523,0.002678,0.000431,0.001763
3202000,0.0324,0.013523,0.002678,0.000431,0.001880
3203000,0.0324,0.013523,0.002678,0.000431,0.001528
3204000,0.0324,0.013523,0.002678,0.000431,0.002116
3205000,0.0324,0.013523,0.002678,0.000431,0.002351
3206000,0.0324,0.013523,0.002678,0.000431,0.001763
3207000,0.0324,0.013523,0.002678,0.000431,0.001880
3208000,0.0324,0.013523,0.002678,0.000431,0.001763
3209000,0.0324,0.013523,0.002678,0.000431,0.001880
3210000,0.0324,0.013523,0.002678,0.000431,0.002116
3211000,0.0324,0.013523,0.002678,0.000431,0.001645
3212000,0.0324,0.013523,0.002678,0.000431,0.001998
3213000,0.0324,0.013523,0.002678,0.000431,0.002116
3214000,0.0324,0.013523,0.002678,0.000431,0.002233
3215000,0.0324,0.013523,0.002678,0.000431,0.001763
3216000,0.0324,0.013523,0.002678,0.000431,0.001880
3217000,0.0324,0.013523,0.002678,0.000431,0.001880
3218000,0.0324,0.013523,0.002678,0.000431,0.001998
3219000,0.0324,0.013523,0.002678,0.000431,0.002116
3220000,0.0324,0.013523,0.002678,0.000431,0.001763
3221000,0.0324,0.013523,0.002678,0.000431,0.001998
3222000,0.0324,0.013523,0.002678,0.000431,0.001880
3223000,0.0324,0.013523,0.002678,0.000431,0.002116
3224000,0.0324,0.013523,0.002678,0.000431,0.001763
3225000,0.0324,0.013523,0.002678,0.000431,0.001880
3226000,0.0324,0.013523,0.002678,0.000431,0.002116
3227000,0.0324,0.013523,0.002678,0.000431,0.001998
3228000,0.0324,0.013523,0.002678,0.000431,0.001998
3229000,0.0324,0.013523,0.002678,0.000431,0.001880
3230000,0.0324,0.013523,0.002678,0.000431,0.001528
3231000,0.0324,0.013523,0.002678,0.000431,0.001880
3232000,0.0324,0.013523,0.002678,0.000431,0.001880
3233000,0.0324,0.013523,0.002678,0.000431,0.001880
3234000,0.0324,0.013523,0.002678,0.000431,0.001763
3235000,0.0324,0.013523,0.002678,0.000431,0.001880
3236000,0.0324,0.013523,0.002678,0.000431,0.001528
3237000,0.0324,0.013523,0.002678,0.000431,0.001645
3238000,0.0324,0.013523,0.002678,0.000431,0.001998
3239000,0.0324,0.013523,0.002678,0.000431,0.001880
3240000,0.0324,0.013523,0.002678,0.000431,0.001880
3241000,0.0324,0.013523,0.002678,0.000431,0.001880
3242000,0.0324,0.013523,0.002678,0.000431,0.001528
3243000,0.0324,0.013523,0.002678,0.000431,0.001763
3244000,0.0324,0.013523,0.002678,0.000431,0.002116
3245000,0.0324,0.013523,0.002678,0.000431,0.001763
3246000,0.0324,0.013523,0.002678,0.000431,0.001880
3247000,0.0324,0.013523,0.002678,0.000431,0.001998
3248000,0.0324,0.013523,0.002678,0.000431,0.001880
3249000,0.0324,0.013523,0.002678,0.000431,0.001763
3250000,0.0324,0.013523,0.002678,0.000431,0.001880
3251000,0.0324,0.013523,0.002678,0.000431,0.001763
3252000,0.0324,0.013523,0.002678,0.000431,0.001410
3253000,0.0324,0.013523,0.002678,0.000431,0.002351
3254000,0.0324,0.013523,0.002678,0.000431,0.001763
3255000,0.0324,0.013523,0.002678,0.000431,0.002116
3256000,0.0324,0.013523,0.002678,0.000431,0.002116
3257000,0.0324,0.013523,0.002678,0.000431,0.001998
3258000,0.0324,0.013523,0.002678,0.000431,0.001998
3259000,0.0324,0.013523,0.002678,0.000431,0.002116
3260000,0.0324,0.013523,0.002678,0.000431,0.001528
3261000,0.0324,0.013523,0.002678,0.000431,0.001880
3262000,0.0324,0.013523,0.002678,0.000431,0.002233
3263000,0.0324,0.013523,0.002678,0.000431,0.001880
3264000,0.0324,0.013523,0.002678,0.000431,0.001763
3265000,0.0324,0.013523,0.002678,0.000431,0.001763
3266000,0.0324,0.013523,0.002678,0.000431,0.001880
3267000,0.0324,0.013523,0.002678,0.000431,0.001998
3268000,0.0324,0.013523,0.002678,0.000431,0.002116
3269000,0.0324,0.013523,0.002678,0.000431,0.001763
3270000,0.0324,0.013523,0.002678,0.000431,0.001880
3271000,0.0324,0.013523,0.002678,0.000431,0.001880
3272000,0.0324,0.013523,0.002678,0.000431,0.001763
3273000,0.0324,0.013523,0.002678,0.000431,0.002116
3274000,0.0324,0.013523,0.002678,0.000431,0.001528
3275000,0.0324,0.013523,0.002678,0.000431,0.001880
3276000,0.0324,0.013523,0.002678,0.000431,0.001763
3277000,0.0324,0.013523,0.002678,0.000431,0.001880
3278000,0.0324,0.013523,0.002678,0.000431,0.001998
3279000,0.0324,0.013523,0.002678,0.000431,0.001528
3280000,0.0324,0.013523,0.002678,0.000431,0.001880
3281000,0.0324,0.013523,0.002678,0.000431,0.001880
3282000,0.0324,0.013523,0.002678,0.000431,0.001763
3283000,0.0324,0.013523,0.002678,0.000431,0.001998
3284000,0.0324,0.013523,0.002678,0.000431,0.001998
3285000,0.0324,0.013523,0.002678,0.000431,0.001880
3286000,0.0324,0.013523,0.002678,0.000431,0.001763
3287000,0.0324,0.013523,0.002678,0.000431,0.001998
3288000,0.0324,0.013523,0.002678,0.000431,0.001763
3289000,0.0324,0.013523,0.002678,0.000431,0.001763
3290000,0.0324,0.013523,0.002678,0.000431,0.001763
3291000,0.0324,0.013523,0.002678,0.000431,0.001763
3292000,0.0324,0.013523,0.002678,0.000431,0.001645
3293000,0.0324,0.013523,0.002678,0.000431,0.001998
3294000,0.0324,0.013523,0.002678,0.000431,0.001763
3295000,0.0324,0.013523,0.002678,0.000431,0.002116
3296000,0.0324,0.013523,0.002678,0.000431,0.001880
3297000,0.0324,0.013523,0.002678,0.000431,0.001880
3298000,0.0324,0.013523,0.002678,0.000431,0.002116
3299000,0.0324,0.013523,0.002678,0.000431,0.001763
3300000,0.0324,0.013523,0.002678,0.000431,0.001763
3301000,0.0324,0.013523,0.002678,0.000431,0.001763
3302000,0.0324,0.013523,0.002678,0.000431,0.002116
3303000,0.0324,0.013523,0.002678,0.000431,0.001645
3304000,0.0324,0.013523,0.002678,0.000431,0.001998
3305000,0.0324,0.013523,0.002678,0.000431,0.001763
3306000,0.0324,0.013523,0.002678,0.000431,0.001998
3307000,0.0324,0.013523,0.002678,0.000431,0.001880
3308000,0.0324,0.013523,0.002678,0.000431,0.001880
3309000,0.0324,0.013523,0.002678,0.000431,0.001528
3310000,0.0324,0.013523,0.002678,0.000431,0.001998
3311000,0.0324,0.013523,0.002678,0.000431,0.001880
3312000,0.0324,0.013523,0.002678,0.000431,0.001998
3313000,0.0324,0.013523,0.002678,0.000431,0.001763
3314000,0.0324,0.013523,0.002678,0.000431,0.002233
3315000,0.0324,0.013523,0.002678,0.000431,0.001880
3316000,0.0324,0.013523,0.002678,0.000431,0.001763
3317000,0.0324,0.013523,0.002678,0.000431,0.001880
3318000,0.0324,0.013523,0.002678,0.000431,0.002116
3319000,0.0324,0.013523,0.002678,0.000431,0.001293
3320000,0.0324,0.013523,0.002678,0.000431,0.001998
3321000,0.0324,0.013523,0.002678,0.000431,0.001645
3322000,0.0324,0.013523,0.002678,0.000431,0.002233
3323000,0.0324,0.013523,0.002678,0.000431,0.001998
3324000,0.0324,0.013523,0.002678,0.000431,0.001880
3325000,0.0324,0.013523,0.002678,0.000431,0.001763
3326000,0.0324,0.013523,0.002678,0.000431,0.001880
3327000,0.0324,0.013523,0.002678,0.000431,0.001645
3328000,0.0324,0.013523,0.002678,0.000431,0.002116
3329000,0.0324,0.013523,0.002678,0.000431,0.002116
3330000,0.0324,0.013523,0.002678,0.000431,0.001645
3331000,0.0324,0.013523,0.002678,0.000431,0.002233
3332000,0.0324,0.013523,0.002678,0.000431,0.001645
3333000,0.0324,0.013523,0.002678,0.000431,0.001998
3334000,0.0324,0.013523,0.002678,0.000431,0.001998
3335000,0.0324,0.013523,0.002678,0.000431,0.001880
3336000,0.0324,0.013523,0.002678,0.000431,0.001998
3337000,0.0324,0.013523,0.002678,0.000431,0.002233
3338000,0.0324,0.013523,0.002678,0.000431,0.001880
3339000,0.0324,0.013523,0.002678,0.000431,0.002116
3340000,0.0324,0.013523,0.002678,0.000431,0.002116
3341000,0.0324,0.013523,0.002678,0.000431,0.001528
3342000,0.0324,0.013523,0.002678,0.000431,0.001998
3343000,0.0324,0.013523,0.002678,0.000431,0.001763
3344000,0.0324,0.013523,0.002678,0.000431,0.001763
3345000,0.0324,0.013523,0.002678,0.000431,0.001763
3346000,0.0324,0.013523,0.002678,0.000431,0.001998
3347000,0.0324,0.013523,0.002678,0.000431,0.001880
3348000,0.0324,0.013523,0.002678,0.000431,0.001763
3349000,0.0324,0.013523,0.002678,0.000431,0.001880
3350000,0.0324,0.013523,0.002678,0.000431,0.001763
3351000,0.0324,0.013523,0.002678,0.000431,0.002233
3352000,0.0324,0.013523,0.002678,0.000431,0.001763
3353000,0.0324,0.013523,0.002678,0.000431,0.001998
3354000,0.0324,0.013523,0.002678,0.000431,0.001998
3355000,0.0324,0.013523,0.002678,0.000431,0.001763
3356000,0.0324,0.013523,0.002678,0.000431,0.001763
3357000,0.0324,0.013523,0.002678,0.000431,0.001998
3358000,0.0324,0.013523,0.002678,0.000431,0.001998
3359000,0.0324,0.013523,0.002678,0.000431,0.001763
3360000,0.0324,0.013523,0.002678,0.000431,0.001998
3361000,0.0324,0.013523,0.002678,0.000431,0.001880
3362000,0.0324,0.013523,0.002678,0.000431,0.001880
3363000,0.0324,0.013523,0.002678,0.000431,0.001880
3364000,0.0324,0.013523,0.002678,0.000431,0.001880
3365000,0.0324,0.013523,0.002678,0.000431,0.001528
3366000,0.0324,0.013523,0.002678,0.000431,0.002116
3367000,0.0324,0.013523,0.002678,0.000431,0.001998
3368000,0.0324,0.013523,0.002678,0.000431,0.001880
3369000,0.0324,0.013523,0.002678,0.000431,0.001763
3370000,0.0324,0.013523,0.002678,0.000431,0.001880
3371000,0.0324,0.013523,0.002678,0.000431,0.001645
3372000,0.0324,0.013523,0.002678,0.000431,0.001645
3373000,0.0324,0.013523,0.002678,0.000431,0.001293
3374000,0.0324,0.013523,0.002678,0.000431,0.001293
3375000,0.0324,0.013523,0.002678,0.000431,0.001293
3376000,0.0324,0.013523,0.002678,0.000431,0.001645
3377000,0.0324,0.013523,0.002678,0.000431,0.001293
3378000,0.0324,0.013523,0.002678,0.000431,0.001293
3379000,0.0324,0.013523,0.002678,0.000431,0.001175
3380000,0.0324,0.013523,0.002678,0.000431,0.001410
3381000,0.0324,0.013523,0.002678,0.000431,0.001528
3382000,0.0324,0.013523,0.002678,0.000431,0.001293
3383000,0.0324,0.013523,0.002678,0.000431,0.001058
3384000,0.0324,0.013523,0.002678,0.000431,0.001175
3385000,0.0324,0.013523,0.002678,0.000431,0.001410
3386000,0.0324,0.013523,0.002678,0.000431,0.001528
3387000,0.0324,0.013523,0.002678,0.000431,0.001175
3388000,0.0324,0.013523,0.002678,0.000431,0.001293
3389000,0.0324,0.013523,0.002678,0.000431,0.001528
3390000,0.0324,0.013523,0.002678,0.000431,0.001293
3391000,0.0324,0.013523,0.002678,0.000431,0.001175
3392000,0.0324,0.013523,0.002678,0.000431,0.001528
3393000,0.0324,0.013523,0.002678,0.000431,0.001058
3394000,0.0324,0.013523,0.002678,0.000431,0.001528
3395000,0.0324,0.013523,0.002678,0.000431,0.001175
3396000,0.0324,0.013523,0.002678,0.000431,0.001410
3397000,0.0324,0.013523,0.002678,0.000431,0.001058
3398000,0.0324,0.013523,0.002678,0.000431,0.001175
3399000,0.0324,0.013523,0.002678,0.000431,0.001293
3400000,0.0324,0.013523,0.002678,0.000431,0.001058
3401000,0.0324,0.013523,0.002678,0.000431,0.001175
3402000,0.0324,0.013523,0.002678,0.000431,0.001293
3403000,0.0324,0.013523,0.002678,0.000431,0.001410
3404000,0.0324,0.013523,0.002678,0.000431,0.001175
3405000,0.0324,0.013523,0.002678,0.000431,0.001175
3406000,0.0324,0.013523,0.002678,0.000431,0.001293
3407000,0.0324,0.013523,0.002678,0.000431,0.001410
3408000,0.0324,0.013523,0.002678,0.000431,0.001410
3409000,0.0324,0.013523,0.002678,0.000431,0.001058
3410000,0.0324,0.013523,0.002678,0.000431,0.001293
3411000,0.0324,0.013523,0.002678,0.000431,0.001293
3412000,0.0324,0.013523,0.002678,0.000431,0.001410
3413000,0.0324,0.013523,0.002678,0.000431,0.001293
3414000,0.0324,0.013523,0.002678,0.000431,0.001410
3415000,0.0324,0.013523,0.002678,0.000431,0.001410
3416000,0.0324,0.013523,0.002678,0.000431,0.001293
3417000,0.0324,0.013523,0.002678,0.000431,0.001175
3418000,0.0324,0.013523,0.002678,0.000431,0.001293
3419000,0.0324,0.013523,0.002678,0.000431,0.001528
3420000,0.0324,0.013523,0.002678,0.000431,0.001175
3421000,0.0324,0.013523,0.002678,0.000431,0.001175
3422000,0.0324,0.013523,0.002678,0.000431,0.001528
3423000,0.0324,0.013523,0.002678,0.000431,0.001293
3424000,0.0324,0.013523,0.002678,0.000431,0.001058
3425000,0.0324,0.013523,0.002678,0.000431,0.001175
3426000,0.0324,0.013523,0.002678,0.000431,0.001528
3427000,0.0324,0.013523,0.002678,0.000431,0.001293
3428000,0.0324,0.013523,0.002678,0.000431,0.001175
3429000,0.0324,0.013523,0.002678,0.000431,0.001175
3430000,0.0324,0.013523,0.002678,0.000431,0.001410
3431000,0.0324,0.013523,0.002678,0.000431,0.001058
3432000,0.0324,0.013523,0.002678,0.000431,0.001175
3433000,0.0324,0.013523,0.002678,0.000431,0.001645
3434000,0.0324,0.013523,0.002678,0.000431,0.001293
3435000,0.0324,0.013523,0.002678,0.000431,0.001293
3436000,0.0324,0.013523,0.002678,0.000431,0.001293
3437000,0.0324,0.013523,0.002678,0.000431,0.001410
3438000,0.0324,0.013523,0.002678,0.000431,0.001528
3439000,0.0324,0.013523,0.002678,0.000431,0.001175
3440000,0.0324,0.013523,0.002678,0.000431,0.001410
3441000,0.0324,0.013523,0.002678,0.000431,0.001293
3442000,0.0324,0.013523,0.002678,0.000431,0.001293
3443000,0.0324,0.013523,0.002678,0.000431,0.001293
3444000,0.0324,0.013523,0.002678,0.000431,0.001528
3445000,0.0324,0.013523,0.002678,0.000431,0.001175
3446000,0.0324,0.013523,0.002678,0.000431,0.001410
3447000,0.0324,0.013523,0.002678,0.000431,0.000940
3448000,0.0324,0.013523,0.002678,0.000431,0.001410
3449000,0.0324,0.013523,0.002678,0.000431,0.001293
3450000,0.0324,0.013523,0.002678,0.000431,0.001293
3451000,0.0324,0.013523,0.002678,0.000431,0.001528
3452000,0.0324,0.013523,0.002678,0.000431,0.001175
3453000,0.0324,0.013523,0.002678,0.000431,0.001058
3454000,0.0324,0.013523,0.002678,0.000431,0.001293
3455000,0.0324,0.013523,0.002678,0.000431,0.001410
3456000,0.0324,0.013523,0.002678,0.000431,0.001410
3457000,0.0324,0.013523,0.002678,0.000431,0.001058
3458000,0.0324,0.013523,0.002678,0.000431,0.001528
3459000,0.0324,0.013523,0.002678,0.000431,0.001410
3460000,0.0324,0.013523,0.002678,0.000431,0.001058
3461000,0.0324,0.013523,0.002678,0.000431,0.001410
3462000,0.0324,0.013523,0.002678,0.000431,0.001293
3463000,0.0324,0.013523,0.002678,0.000431,0.001175
3464000,0.0324,0.013523,0.002678,0.000431,0.001058
3465000,0.0324,0.013523,0.002678,0.000431,0.001293
3466000,0.0324,0.013523,0.002678,0.000431,0.001410
3467000,0.0324,0.013523,0.002678,0.000431,0.001410
3468000,0.0324,0.013523,0.002678,0.000431,0.001410
3469000,0.0324,0.013523,0.002678,0.000431,0.001058
3470000,0.0324,0.013523,0.002678,0.000431,0.001175
3471000,0.0324,0.013523,0.002678,0.000431,0.001410
3472000,0.0324,0.013523,0.002678,0.000431,0.001058
3473000,0.0324,0.013523,0.002678,0.000431,0.001410
3474000,0.0324,0.013523,0.002678,0.000431,0.001175
3475000,0.0324,0.013523,0.002678,0.000431,0.001645
3476000,0.0324,0.013523,0.002678,0.000431,0.001175
3477000,0.0324,0.013523,0.002678,0.000431,0.001175
3478000,0.0324,0.013523,0.002678,0.000431,0.001410
3479000,0.0324,0.013523,0.002678,0.000431,0.001175
3480000,0.0324,0.013523,0.002678,0.000431,0.001293
3481000,0.0324,0.013523,0.002678,0.000431,0.001293
3482000,0.0324,0.013523,0.002678,0.000431,0.001293
3483000,0.0324,0.013523,0.002678,0.000431,0.001293
3484000,0.0324,0.013523,0.002678,0.000431,0.001293
3485000,0.0324,0.013523,0.002678,0.000431,0.001293
3486000,0.0324,0.013523,0.002678,0.000431,0.001410
3487000,0.0324,0.013523,0.002678,0.000431,0.001058
3488000,0.0324,0.013523,0.002678,0.000431,0.001293
3489000,0.0324,0.013523,0.002678,0.000431,0.001410
3490000,0.0324,0.013523,0.002678,0.000431,0.001175
3491000,0.0324,0.013523,0.002678,0.000431,0.001293
3492000,0.0324,0.013523,0.002678,0.000431,0.001410
3493000,0.0324,0.013523,0.002678,0.000431,0.001293
3494000,0.0324,0.013523,0.002678,0.000431,0.001410
3495000,0.0324,0.013523,0.002678,0.000431,0.001293
3496000,0.0324,0.013523,0.002678,0.000431,0.001058
3497000,0.0324,0.013523,0.002678,0.000431,0.001410
3498000,0.0324,0.013523,0.002678,0.000431,0.001410
3499000,0.0324,0.013523,0.002678,0.000431,0.001410
3500000,0.0324,0.013523,0.002678,0.000431,0.001293
3501000,0.0324,0.013523,0.002678,0.000431,0.001293
3502000,0.0324,0.013523,0.002678,0.000431,0.001410
3503000,0.0324,0.013523,0.002678,0.000431,0.001175
3504000,0.0324,0.013523,0.002678,0.000431,0.001058
3505000,0.0324,0.013523,0.002678,0.000431,0.001293
3506000,0.0324,0.013523,0.002678,0.000431,0.001293
3507000,0.0324,0.013523,0.002678,0.000431,0.001293
3508000,0.0324,0.013523,0.002678,0.000431,0.001410
3509000,0.0324,0.013523,0.002678,0.000431,0.001175
3510000,0.0324,0.013523,0.002678,0.000431,0.001528
3511000,0.0324,0.013523,0.002678,0.000431,0.001410
3512000,0.0324,0.013523,0.002678,0.000431,0.001293
3513000,0.0324,0.013523,0.002678,0.000431,0.001058
3514000,0.0324,0.013523,0.002678,0.000431,0.001175
3515000,0.0324,0.013523,0.002678,0.000431,0.001410
3516000,0.0324,0.013523,0.002678,0.000431,0.001293
3517000,0.0324,0.013523,0.002678,0.000431,0.001293
3518000,0.0324,0.013523,0.002678,0.000431,0.001175
3519000,0.0324,0.013523,0.002678,0.000431,0.001410
3520000,0.0324,0.013523,0.002678,0.000431,0.001410
3521000,0.0324,0.013523,0.002678,0.000431,0.000940
3522000,0.0324,0.013523,0.002678,0.000431,0.001293
3523000,0.0324,0.013523,0.002678,0.000431,0.001410
3524000,0.0324,0.013523,0.002678,0.000431,0.001293
3525000,0.0324,0.013523,0.002678,0.000431,0.001293
3526000,0.0324,0.013523,0.002678,0.000431,0.001175
3527000,0.0324,0.013523,0.002678,0.000431,0.001293
3528000,0.0324,0.013523,0.002678,0.000431,0.001175
3529000,0.0324,0.013523,0.002678,0.000431,0.001410
3530000,0.0324,0.013523,0.002678,0.000431,0.001410
3531000,0.0324,0.013523,0.002678,0.000431,0.001293
3532000,0.0324,0.013523,0.002678,0.000431,0.001293
3533000,0.0324,0.013523,0.002678,0.000431,0.001293
3534000,0.0324,0.013523,0.002678,0.000431,0.001410
3535000,0.0324,0.013523,0.002678,0.000431,0.001410
3536000,0.0324,0.013523,0.002678,0.000431,0.001293
3537000,0.0324,0.013523,0.002678,0.000431,0.001175
3538000,0.0324,0.013523,0.002678,0.000431,0.001293
3539000,0.0324,0.013523,0.002678,0.000431,0.001410
3540000,0.0324,0.013523,0.002678,0.000431,0.001175
3541000,0.0324,0.013523,0.002678,0.000431,0.001175
3542000,0.0324,0.013523,0.002678,0.000431,0.001528
3543000,0.0324,0.013523,0.002678,0.000431,0.001293
3544000,0.0324,0.013523,0.002678,0.000431,0.001175
3545000,0.0324,0.013523,0.002678,0.000431,0.001410
3546000,0.0324,0.013523,0.002678,0.000431,0.001293
3547000,0.0324,0.013523,0.002678,0.000431,0.001293
3548000,0.0324,0.013523,0.002678,0.000431,0.001293
3549000,0.0324,0.013523,0.002678,0.000431,0.001410
3550000,0.0324,0.013523,0.002678,0.000431,0.001293
3551000,0.0324,0.013523,0.002678,0.000431,0.001410
3552000,0.0324,0.013523,0.002678,0.000431,0.001293
3553000,0.0324,0.013523,0.002678,0.000431,0.001175
3554000,0.0324,0.013523,0.002678,0.000431,0.001293
3555000,0.0324,0.013523,0.002678,0.000431,0.001293
3556000,0.0324,0.013523,0.002678,0.000431,0.001410
3557000,0.0324,0.013523,0.002678,0.000431,0.001293
3558000,0.0324,0.013523,0.002678,0.000431,0.001410
3559000,0.0324,0.013523,0.002678,0.000431,0.001410
3560000,0.0324,0.013523,0.002678,0.000431,0.001175
3561000,0.0324,0.013523,0.002678,0.000431,0.000940
3562000,0.0324,0.013523,0.002678,0.000431,0.001528
3563000,0.0324,0.013523,0.002678,0.000431,0.001293
3564000,0.0324,0.013523,0.002678,0.000431,0.001410
3565000,0.0324,0.013523,0.002678,0.000431,0.001293
3566000,0.0324,0.013523,0.002678,0.000431,0.001293
3567000,0.0324,0.013523,0.002678,0.000431,0.001293
3568000,0.0324,0.013523,0.002678,0.000431,0.001293
3569000,0.0324,0.013523,0.002678,0.000431,0.001293
3570000,0.0324,0.013523,0.002678,0.000431,0.001293
3571000,0.0324,0.013523,0.002678,0.000431,0.001293
3572000,0.0324,0.013523,0.002678,0.000431,0.001293
3573000,0.0324,0.013523,0.002678,0.000431,0.001175
3574000,0.0324,0.013523,0.002678,0.000431,0.001058
3575000,0.0324,0.013523,0.002678,0.000431,0.001293
3576000,0.0324,0.013523,0.002678,0.000431,0.001528
3577000,0.0324,0.013523,0.002678,0.000431,0.001175
3578000,0.0324,0.013523,0.002678,0.000431,0.001175
3579000,0.0324,0.013523,0.002678,0.000431,0.001293
3580000,0.0324,0.013523,0.002678,0.000431,0.001175
3581000,0.0324,0.013523,0.002678,0.000431,0.001293
3582000,0.0324,0.013523,0.002678,0.000431,0.001058
3583000,0.0324,0.013523,0.002678,0.000431,0.001175
3584000,0.0324,0.013523,0.002678,0.000431,0.001293
3585000,0.0324,0.013523,0.002678,0.000431,0.001528
3586000,0.0324,0.013523,0.002678,0.000431,0.001175
3587000,0.0324,0.013523,0.002678,0.000431,0.001528
3588000,0.0324,0.013523,0.002678,0.000431,0.001175
3589000,0.0324,0.013523,0.002678,0.000431,0.001410
3590000,0.0324,0.013523,0.002678,0.000431,0.001175
3591000,0.0324,0.013523,0.002678,0.000431,0.001410
3592000,0.0324,0.013523,0.002678,0.000431,0.001058
3593000,0.0324,0.013523,0.002678,0.000431,0.001058
3594000,0.0324,0.013523,0.002678,0.000431,0.000705
3595000,0.0324,0.013523,0.002678,0.000431,0.000705
3596000,0.0324,0.013523,0.002678,0.000431,0.000588
3597000,0.0324,0.013523,0.002678,0.000431,0.000588
3598000,0.0324,0.013523,0.002678,0.000431,0.000353
3599000,0.0324,0.013523,0.002678,0.000431,0.000000
3600000,0.0324,0.013523,0.002678,0.000431,0.000000
3601000,0.0324,0.013523,0.002678,0.000431,0.000000
3602000,0.0324,0.013523,0.002678,0.000431,0.000000
3603000,0.0324,0.013523,0.002678,0.000431,0.642527
