Cycle,Area(mm^2),PeakDynamic(W),SubthresholdLeakage(W),GateLeakage(W),RunTimeDynamic(W)
4000000,0.0324,0.013523,0.002678,0.000431,0.007992
4001000,0.0324,0.013523,0.002678,0.000431,0.007169
4002000,0.0324,0.013523,0.002678,0.000431,0.007404
4003000,0.0324,0.013523,0.002678,0.000431,0.007169
4004000,0.0324,0.013523,0.002678,0.000431,0.007757
4005000,0.0324,0.013523,0.002678,0.000431,0.007757
4006000,0.0324,0.013523,0.002678,0.000431,0.007287
4007000,0.0324,0.013523,0.002678,0.000431,0.007639
4008000,0.0324,0.013523,0.002678,0.000431,0.007052
4009000,0.0324,0.013523,0.002678,0.000431,0.007639
4010000,0.0324,0.013523,0.002678,0.000431,0.007287
4011000,0.0324,0.013523,0.002678,0.000431,0.007522
4012000,0.0324,0.013523,0.002678,0.000431,0.007169
4013000,0.0324,0.013523,0.002678,0.000431,0.007169
4014000,0.0324,0.013523,0.002678,0.000431,0.007522
4015000,0.0324,0.013523,0.002678,0.000431,0.006934
4016000,0.0324,0.013523,0.002678,0.000431,0.007992
4017000,0.0324,0.013523,0.002678,0.000431,0.007169
4018000,0.0324,0.013523,0.002678,0.000431,0.006934
4019000,0.0324,0.013523,0.002678,0.000431,0.007874
4020000,0.0324,0.013523,0.002678,0.000431,0.007522
4021000,0.0324,0.013523,0.002678,0.000431,0.007052
4022000,0.0324,0.013523,0.002678,0.000431,0.007992
4023000,0.0324,0.013523,0.002678,0.000431,0.007522
4024000,0.0324,0.013523,0.002678,0.000431,0.007522
4025000,0.0324,0.013523,0.002678,0.000431,0.007522
4026000,0.0324,0.013523,0.002678,0.000431,0.007639
4027000,0.0324,0.013523,0.002678,0.000431,0.007757
4028000,0.0324,0.013523,0.002678,0.000431,0.007992
4029000,0.0324,0.013523,0.002678,0.000431,0.007639
4030000,0.0324,0.013523,0.002678,0.000431,0.007522
4031000,0.0324,0.013523,0.002678,0.000431,0.007287
4032000,0.0324,0.013523,0.002678,0.000431,0.007169
4033000,0.0324,0.013523,0.002678,0.000431,0.007404
4034000,0.0324,0.013523,0.002678,0.000431,0.007639
4035000,0.0324,0.013523,0.002678,0.000431,0.007757
4036000,0.0324,0.013523,0.002678,0.000431,0.007169
4037000,0.0324,0.013523,0.002678,0.000431,0.007052
4038000,0.0324,0.013523,0.002678,0.000431,0.007639
4039000,0.0324,0.013523,0.002678,0.000431,0.007757
4040000,0.0324,0.013523,0.002678,0.000431,0.007404
4041000,0.0324,0.013523,0.002678,0.000431,0.007169
4042000,0.0324,0.013523,0.002678,0.000431,0.007992
4043000,0.0324,0.013523,0.002678,0.000431,0.007522
4044000,0.0324,0.013523,0.002678,0.000431,0.007639
4045000,0.0324,0.013523,0.002678,0.000431,0.007169
4046000,0.0324,0.013523,0.002678,0.000431,0.007522
4047000,0.0324,0.013523,0.002678,0.000431,0.007757
4048000,0.0324,0.013523,0.002678,0.000431,0.007522
4049000,0.0324,0.013523,0.002678,0.000431,0.007404
4050000,0.0324,0.013523,0.002678,0.000431,0.007639
4051000,0.0324,0.013523,0.002678,0.000431,0.006699
4052000,0.0324,0.013523,0.002678,0.000431,0.006817
4053000,0.0324,0.013523,0.002678,0.000431,0.006934
4054000,0.0324,0.013523,0.002678,0.000431,0.006934
4055000,0.0324,0.013523,0.002678,0.000431,0.007052
4056000,0.0324,0.013523,0.002678,0.000431,0.006582
4057000,0.0324,0.013523,0.002678,0.000431,0.006699
4058000,0.0324,0.013523,0.002678,0.000431,0.007522
4059000,0.0324,0.013523,0.002678,0.000431,0.006464
4060000,0.0324,0.013523,0.002678,0.000431,0.006934
4061000,0.0324,0.013523,0.002678,0.000431,0.006699
4062000,0.0324,0.013523,0.002678,0.000431,0.006817
4063000,0.0324,0.013523,0.002678,0.000431,0.006699
4064000,0.0324,0.013523,0.002678,0.000431,0.006934
4065000,0.0324,0.013523,0.002678,0.000431,0.007052
4066000,0.0324,0.013523,0.002678,0.000431,0.006934
4067000,0.0324,0.013523,0.002678,0.000431,0.007169
4068000,0.0324,0.013523,0.002678,0.000431,0.006817
4069000,0.0324,0.013523,0.002678,0.000431,0.006817
4070000,0.0324,0.013523,0.002678,0.000431,0.006699
4071000,0.0324,0.013523,0.002678,0.000431,0.007169
4072000,0.0324,0.013523,0.002678,0.000431,0.006699
4073000,0.0324,0.013523,0.002678,0.000431,0.007169
4074000,0.0324,0.013523,0.002678,0.000431,0.006464
4075000,0.0324,0.013523,0.002678,0.000431,0.006699
4076000,0.0324,0.013523,0.002678,0.000431,0.006817
4077000,0.0324,0.013523,0.002678,0.000431,0.006817
4078000,0.0324,0.013523,0.002678,0.000431,0.006699
4079000,0.0324,0.013523,0.002678,0.000431,0.006817
4080000,0.0324,0.013523,0.002678,0.000431,0.007169
4081000,0.0324,0.013523,0.002678,0.000431,0.007052
4082000,0.0324,0.013523,0.002678,0.000431,0.006699
4083000,0.0324,0.013523,0.002678,0.000431,0.007052
4084000,0.0324,0.013523,0.002678,0.000431,0.006817
4085000,0.0324,0.013523,0.002678,0.000431,0.007169
4086000,0.0324,0.013523,0.002678,0.000431,0.007052
4087000,0.0324,0.013523,0.002678,0.000431,0.006582
4088000,0.0324,0.013523,0.002678,0.000431,0.006699
4089000,0.0324,0.013523,0.002678,0.000431,0.006582
4090000,0.0324,0.013523,0.002678,0.000431,0.006817
4091000,0.0324,0.013523,0.002678,0.000431,0.006934
4092000,0.0324,0.013523,0.002678,0.000431,0.006934
4093000,0.0324,0.013523,0.002678,0.000431,0.006464
4094000,0.0324,0.013523,0.002678,0.000431,0.007052
4095000,0.0324,0.013523,0.002678,0.000431,0.006817
4096000,0.0324,0.013523,0.002678,0.000431,0.006934
4097000,0.0324,0.013523,0.002678,0.000431,0.007169
4098000,0.0324,0.013523,0.002678,0.000431,0.006817
4099000,0.0324,0.013523,0.002678,0.000431,0.006582
4100000,0.0324,0.013523,0.002678,0.000431,0.007169
4101000,0.0324,0.013523,0.002678,0.000431,0.007522
4102000,0.0324,0.013523,0.002678,0.000431,0.006229
4103000,0.0324,0.013523,0.002678,0.000431,0.006934
4104000,0.0324,0.013523,0.002678,0.000431,0.006229
4105000,0.0324,0.013523,0.002678,0.000431,0.007404
4106000,0.0324,0.013523,0.002678,0.000431,0.006934
4107000,0.0324,0.013523,0.002678,0.000431,0.006934
4108000,0.0324,0.013523,0.002678,0.000431,0.006464
4109000,0.0324,0.013523,0.002678,0.000431,0.006934
4110000,0.0324,0.013523,0.002678,0.000431,0.007052
4111000,0.0324,0.013523,0.002678,0.000431,0.006464
4112000,0.0324,0.013523,0.002678,0.000431,0.007052
4113000,0.0324,0.013523,0.002678,0.000431,0.007052
4114000,0.0324,0.013523,0.002678,0.000431,0.006582
4115000,0.0324,0.013523,0.002678,0.000431,0.006464
4116000,0.0324,0.013523,0.002678,0.000431,0.007169
4117000,0.0324,0.013523,0.002678,0.000431,0.006582
4118000,0.0324,0.013523,0.002678,0.000431,0.007052
4119000,0.0324,0.013523,0.002678,0.000431,0.006347
4120000,0.0324,0.013523,0.002678,0.000431,0.007052
4121000,0.0324,0.013523,0.002678,0.000431,0.007052
4122000,0.0324,0.013523,0.002678,0.000431,0.006229
4123000,0.0324,0.013523,0.002678,0.000431,0.007287
4124000,0.0324,0.013523,0.002678,0.000431,0.007287
4125000,0.0324,0.013523,0.002678,0.000431,0.007169
4126000,0.0324,0.013523,0.002678,0.000431,0.007052
4127000,0.0324,0.013523,0.002678,0.000431,0.006934
4128000,0.0324,0.013523,0.002678,0.000431,0.006582
4129000,0.0324,0.013523,0.002678,0.000431,0.006934
4130000,0.0324,0.013523,0.002678,0.000431,0.006699
4131000,0.0324,0.013523,0.002678,0.000431,0.007052
4132000,0.0324,0.013523,0.002678,0.000431,0.006817
4133000,0.0324,0.013523,0.002678,0.000431,0.006817
4134000,0.0324,0.013523,0.002678,0.000431,0.007404
4135000,0.0324,0.013523,0.002678,0.000431,0.006817
4136000,0.0324,0.013523,0.002678,0.000431,0.006699
4137000,0.0324,0.013523,0.002678,0.000431,0.006464
4138000,0.0324,0.013523,0.002678,0.000431,0.006934
4139000,0.0324,0.013523,0.002678,0.000431,0.006699
4140000,0.0324,0.013523,0.002678,0.000431,0.007169
4141000,0.0324,0.013523,0.002678,0.000431,0.006817
4142000,0.0324,0.013523,0.002678,0.000431,0.006934
4143000,0.0324,0.013523,0.002678,0.000431,0.006699
4144000,0.0324,0.013523,0.002678,0.000431,0.006934
4145000,0.0324,0.013523,0.002678,0.000431,0.007287
4146000,0.0324,0.013523,0.002678,0.000431,0.006934
4147000,0.0324,0.013523,0.002678,0.000431,0.006582
4148000,0.0324,0.013523,0.002678,0.000431,0.007287
4149000,0.0324,0.013523,0.002678,0.000431,0.007052
4150000,0.0324,0.013523,0.002678,0.000431,0.007052
4151000,0.0324,0.013523,0.002678,0.000431,0.006934
4152000,0.0324,0.013523,0.002678,0.000431,0.006582
4153000,0.0324,0.013523,0.002678,0.000431,0.007287
4154000,0.0324,0.013523,0.002678,0.000431,0.007522
4155000,0.0324,0.013523,0.002678,0.000431,0.006699
4156000,0.0324,0.013523,0.002678,0.000431,0.007287
4157000,0.0324,0.013523,0.002678,0.000431,0.006464
4158000,0.0324,0.013523,0.002678,0.000431,0.006934
4159000,0.0324,0.013523,0.002678,0.000431,0.006934
4160000,0.0324,0.013523,0.002678,0.000431,0.007169
4161000,0.0324,0.013523,0.002678,0.000431,0.007052
4162000,0.0324,0.013523,0.002678,0.000431,0.007052
4163000,0.0324,0.013523,0.002678,0.000431,0.005994
4164000,0.0324,0.013523,0.002678,0.000431,0.007052
4165000,0.0324,0.013523,0.002678,0.000431,0.006934
4166000,0.0324,0.013523,0.002678,0.000431,0.006582
4167000,0.0324,0.013523,0.002678,0.000431,0.006582
4168000,0.0324,0.013523,0.002678,0.000431,0.006347
4169000,0.0324,0.013523,0.002678,0.000431,0.006111
4170000,0.0324,0.013523,0.002678,0.000431,0.006347
4171000,0.0324,0.013523,0.002678,0.000431,0.005994
4172000,0.0324,0.013523,0.002678,0.000431,0.006347
4173000,0.0324,0.013523,0.002678,0.000431,0.006582
4174000,0.0324,0.013523,0.002678,0.000431,0.006229
4175000,0.0324,0.013523,0.002678,0.000431,0.006347
4176000,0.0324,0.013523,0.002678,0.000431,0.006582
4177000,0.0324,0.013523,0.002678,0.000431,0.006582
4178000,0.0324,0.013523,0.002678,0.000431,0.005876
4179000,0.0324,0.013523,0.002678,0.000431,0.006229
4180000,0.0324,0.013523,0.002678,0.000431,0.006229
4181000,0.0324,0.013523,0.002678,0.000431,0.006229
4182000,0.0324,0.013523,0.002678,0.000431,0.006111
4183000,0.0324,0.013523,0.002678,0.000431,0.006347
4184000,0.0324,0.013523,0.002678,0.000431,0.005876
4185000,0.0324,0.013523,0.002678,0.000431,0.005524
4186000,0.0324,0.013523,0.002678,0.000431,0.006464
4187000,0.0324,0.013523,0.002678,0.000431,0.006229
4188000,0.0324,0.013523,0.002678,0.000431,0.005994
4189000,0.0324,0.013523,0.002678,0.000431,0.006229
4190000,0.0324,0.013523,0.002678,0.000431,0.006229
4191000,0.0324,0.013523,0.002678,0.000431,0.006464
4192000,0.0324,0.013523,0.002678,0.000431,0.005994
4193000,0.0324,0.013523,0.002678,0.000431,0.006111
4194000,0.0324,0.013523,0.002678,0.000431,0.005289
4195000,0.0324,0.013523,0.002678,0.000431,0.005994
4196000,0.0324,0.013523,0.002678,0.000431,0.006464
4197000,0.0324,0.013523,0.002678,0.000431,0.006347
4198000,0.0324,0.013523,0.002678,0.000431,0.006347
4199000,0.0324,0.013523,0.002678,0.000431,0.006111
4200000,0.0324,0.013523,0.002678,0.000431,0.005876
4201000,0.0324,0.013523,0.002678,0.000431,0.006229
4202000,0.0324,0.013523,0.002678,0.000431,0.006347
4203000,0.0324,0.013523,0.002678,0.000431,0.006229
4204000,0.0324,0.013523,0.002678,0.000431,0.005994
4205000,0.0324,0.013523,0.002678,0.000431,0.006464
4206000,0.0324,0.013523,0.002678,0.000431,0.006111
4207000,0.0324,0.013523,0.002678,0.000431,0.006229
4208000,0.0324,0.013523,0.002678,0.000431,0.005994
4209000,0.0324,0.013523,0.002678,0.000431,0.006347
4210000,0.0324,0.013523,0.002678,0.000431,0.005994
4211000,0.0324,0.013523,0.002678,0.000431,0.006229
4212000,0.0324,0.013523,0.002678,0.000431,0.005759
4213000,0.0324,0.013523,0.002678,0.000431,0.006347
4214000,0.0324,0.013523,0.002678,0.000431,0.005876
4215000,0.0324,0.013523,0.002678,0.000431,0.005759
4216000,0.0324,0.013523,0.002678,0.000431,0.006229
4217000,0.0324,0.013523,0.002678,0.000431,0.005289
4218000,0.0324,0.013523,0.002678,0.000431,0.006464
4219000,0.0324,0.013523,0.002678,0.000431,0.006464
4220000,0.0324,0.013523,0.002678,0.000431,0.005994
4221000,0.0324,0.013523,0.002678,0.000431,0.005759
4222000,0.0324,0.013523,0.002678,0.000431,0.006229
4223000,0.0324,0.013523,0.002678,0.000431,0.006464
4224000,0.0324,0.013523,0.002678,0.000431,0.006111
4225000,0.0324,0.013523,0.002678,0.000431,0.006464
4226000,0.0324,0.013523,0.002678,0.000431,0.006229
4227000,0.0324,0.013523,0.002678,0.000431,0.005759
4228000,0.0324,0.013523,0.002678,0.000431,0.006464
4229000,0.0324,0.013523,0.002678,0.000431,0.006111
4230000,0.0324,0.013523,0.002678,0.000431,0.006347
4231000,0.0324,0.013523,0.002678,0.000431,0.006582
4232000,0.0324,0.013523,0.002678,0.000431,0.006464
4233000,0.0324,0.013523,0.002678,0.000431,0.006347
4234000,0.0324,0.013523,0.002678,0.000431,0.006229
4235000,0.0324,0.013523,0.002678,0.000431,0.006229
4236000,0.0324,0.013523,0.002678,0.000431,0.006582
4237000,0.0324,0.013523,0.002678,0.000431,0.005994
4238000,0.0324,0.013523,0.002678,0.000431,0.006699
4239000,0.0324,0.013523,0.002678,0.000431,0.006347
4240000,0.0324,0.013523,0.002678,0.000431,0.006111
4241000,0.0324,0.013523,0.002678,0.000431,0.005876
4242000,0.0324,0.013523,0.002678,0.000431,0.006582
4243000,0.0324,0.013523,0.002678,0.000431,0.006582
4244000,0.0324,0.013523,0.002678,0.000431,0.006229
4245000,0.0324,0.013523,0.002678,0.000431,0.006347
4246000,0.0324,0.013523,0.002678,0.000431,0.005994
4247000,0.0324,0.013523,0.002678,0.000431,0.006347
4248000,0.0324,0.013523,0.002678,0.000431,0.006111
4249000,0.0324,0.013523,0.002678,0.000431,0.006464
4250000,0.0324,0.013523,0.002678,0.000431,0.005641
4251000,0.0324,0.013523,0.002678,0.000431,0.006464
4252000,0.0324,0.013523,0.002678,0.000431,0.006111
4253000,0.0324,0.013523,0.002678,0.000431,0.006111
4254000,0.0324,0.013523,0.002678,0.000431,0.005876
4255000,0.0324,0.013523,0.002678,0.000431,0.006347
4256000,0.0324,0.013523,0.002678,0.000431,0.006229
4257000,0.0324,0.013523,0.002678,0.000431,0.006229
4258000,0.0324,0.013523,0.002678,0.000431,0.005994
4259000,0.0324,0.013523,0.002678,0.000431,0.006699
4260000,0.0324,0.013523,0.002678,0.000431,0.005994
4261000,0.0324,0.013523,0.002678,0.000431,0.006229
4262000,0.0324,0.013523,0.002678,0.000431,0.006699
4263000,0.0324,0.013523,0.002678,0.000431,0.005759
4264000,0.0324,0.013523,0.002678,0.000431,0.006111
4265000,0.0324,0.013523,0.002678,0.000431,0.006347
4266000,0.0324,0.013523,0.002678,0.000431,0.006347
4267000,0.0324,0.013523,0.002678,0.000431,0.006582
4268000,0.0324,0.013523,0.002678,0.000431,0.006817
4269000,0.0324,0.013523,0.002678,0.000431,0.006111
4270000,0.0324,0.013523,0.002678,0.000431,0.005994
4271000,0.0324,0.013523,0.002678,0.000431,0.006699
4272000,0.0324,0.013523,0.002678,0.000431,0.005994
4273000,0.0324,0.013523,0.002678,0.000431,0.006464
4274000,0.0324,0.013523,0.002678,0.000431,0.006229
4275000,0.0324,0.013523,0.002678,0.000431,0.005876
4276000,0.0324,0.013523,0.002678,0.000431,0.005759
4277000,0.0324,0.013523,0.002678,0.000431,0.006582
4278000,0.0324,0.013523,0.002678,0.000431,0.005524
4279000,0.0324,0.013523,0.002678,0.000431,0.005641
4280000,0.0324,0.013523,0.002678,0.000431,0.005876
4281000,0.0324,0.013523,0.002678,0.000431,0.005406
4282000,0.0324,0.013523,0.002678,0.000431,0.005171
4283000,0.0324,0.013523,0.002678,0.000431,0.005876
4284000,0.0324,0.013523,0.002678,0.000431,0.005641
4285000,0.0324,0.013523,0.002678,0.000431,0.005524
4286000,0.0324,0.013523,0.002678,0.000431,0.005994
4287000,0.0324,0.013523,0.002678,0.000431,0.005759
4288000,0.0324,0.013523,0.002678,0.000431,0.005289
4289000,0.0324,0.013523,0.002678,0.000431,0.005876
4290000,0.0324,0.013523,0.002678,0.000431,0.005641
4291000,0.0324,0.013523,0.002678,0.000431,0.005641
4292000,0.0324,0.013523,0.002678,0.000431,0.005054
4293000,0.0324,0.013523,0.002678,0.000431,0.005641
4294000,0.0324,0.013523,0.002678,0.000431,0.006111
4295000,0.0324,0.013523,0.002678,0.000431,0.005524
4296000,0.0324,0.013523,0.002678,0.000431,0.005406
4297000,0.0324,0.013523,0.002678,0.000431,0.005994
4298000,0.0324,0.013523,0.002678,0.000431,0.005759
4299000,0.0324,0.013523,0.002678,0.000431,0.004936
4300000,0.0324,0.013523,0.002678,0.000431,0.005406
4301000,0.0324,0.013523,0.002678,0.000431,0.005406
4302000,0.0324,0.013523,0.002678,0.000431,0.004701
4303000,0.0324,0.013523,0.002678,0.000431,0.005054
4304000,0.0324,0.013523,0.002678,0.000431,0.004819
4305000,0.0324,0.013523,0.002678,0.000431,0.004819
4306000,0.0324,0.013523,0.002678,0.000431,0.005054
4307000,0.0324,0.013523,0.002678,0.000431,0.005054
4308000,0.0324,0.013523,0.002678,0.000431,0.004466
4309000,0.0324,0.013523,0.002678,0.000431,0.004584
4310000,0.0324,0.013523,0.002678,0.000431,0.004701
4311000,0.0324,0.013523,0.002678,0.000431,0.004936
4312000,0.0324,0.013523,0.002678,0.000431,0.004701
4313000,0.0324,0.013523,0.002678,0.000431,0.004936
4314000,0.0324,0.013523,0.002678,0.000431,0.004466
4315000,0.0324,0.013523,0.002678,0.000431,0.004936
4316000,0.0324,0.013523,0.002678,0.000431,0.004819
4317000,0.0324,0.013523,0.002678,0.000431,0.004584
4318000,0.0324,0.013523,0.002678,0.000431,0.004936
4319000,0.0324,0.013523,0.002678,0.000431,0.004584
4320000,0.0324,0.013523,0.002678,0.000431,0.004584
4321000,0.0324,0.013523,0.002678,0.000431,0.005054
4322000,0.0324,0.013523,0.002678,0.000431,0.004936
4323000,0.0324,0.013523,0.002678,0.000431,0.004936
4324000,0.0324,0.013523,0.002678,0.000431,0.004936
4325000,0.0324,0.013523,0.002678,0.000431,0.004584
4326000,0.0324,0.013523,0.002678,0.000431,0.004584
4327000,0.0324,0.013523,0.002678,0.000431,0.004584
4328000,0.0324,0.013523,0.002678,0.000431,0.004819
4329000,0.0324,0.013523,0.002678,0.000431,0.004701
4330000,0.0324,0.013523,0.002678,0.000431,0.005054
4331000,0.0324,0.013523,0.002678,0.000431,0.005171
4332000,0.0324,0.013523,0.002678,0.000431,0.004819
4333000,0.0324,0.013523,0.002678,0.000431,0.004819
4334000,0.0324,0.013523,0.002678,0.000431,0.004819
4335000,0.0324,0.013523,0.002678,0.000431,0.005054
4336000,0.0324,0.013523,0.002678,0.000431,0.004936
4337000,0.0324,0.013523,0.002678,0.000431,0.005054
4338000,0.0324,0.013523,0.002678,0.000431,0.004936
4339000,0.0324,0.013523,0.002678,0.000431,0.004819
4340000,0.0324,0.013523,0.002678,0.000431,0.005289
4341000,0.0324,0.013523,0.002678,0.000431,0.004584
4342000,0.0324,0.013523,0.002678,0.000431,0.004231
4343000,0.0324,0.013523,0.002678,0.000431,0.005171
4344000,0.0324,0.013523,0.002678,0.000431,0.004936
4345000,0.0324,0.013523,0.002678,0.000431,0.004584
4346000,0.0324,0.013523,0.002678,0.000431,0.004936
4347000,0.0324,0.013523,0.002678,0.000431,0.005054
4348000,0.0324,0.013523,0.002678,0.000431,0.004701
4349000,0.0324,0.013523,0.002678,0.000431,0.005171
4350000,0.0324,0.013523,0.002678,0.000431,0.005054
4351000,0.0324,0.013523,0.002678,0.000431,0.004936
4352000,0.0324,0.013523,0.002678,0.000431,0.004701
4353000,0.0324,0.013523,0.002678,0.000431,0.005054
4354000,0.0324,0.013523,0.002678,0.000431,0.004936
4355000,0.0324,0.013523,0.002678,0.000431,0.004466
4356000,0.0324,0.013523,0.002678,0.000431,0.005171
4357000,0.0324,0.013523,0.002678,0.000431,0.004936
4358000,0.0324,0.013523,0.002678,0.000431,0.004819
4359000,0.0324,0.013523,0.002678,0.000431,0.004819
4360000,0.0324,0.013523,0.002678,0.000431,0.005406
4361000,0.0324,0.013523,0.002678,0.000431,0.004819
4362000,0.0324,0.013523,0.002678,0.000431,0.004701
4363000,0.0324,0.013523,0.002678,0.000431,0.004701
4364000,0.0324,0.013523,0.002678,0.000431,0.005171
4365000,0.0324,0.013523,0.002678,0.000431,0.004819
4366000,0.0324,0.013523,0.002678,0.000431,0.004819
4367000,0.0324,0.013523,0.002678,0.000431,0.004819
4368000,0.0324,0.013523,0.002678,0.000431,0.004819
4369000,0.0324,0.013523,0.002678,0.000431,0.005054
4370000,0.0324,0.013523,0.002678,0.000431,0.004819
4371000,0.0324,0.013523,0.002678,0.000431,0.004584
4372000,0.0324,0.013523,0.002678,0.000431,0.004819
4373000,0.0324,0.013523,0.002678,0.000431,0.004701
4374000,0.0324,0.013523,0.002678,0.000431,0.005289
4375000,0.0324,0.013523,0.002678,0.000431,0.004936
4376000,0.0324,0.013523,0.002678,0.000431,0.005054
4377000,0.0324,0.013523,0.002678,0.000431,0.004936
4378000,0.0324,0.013523,0.002678,0.000431,0.004701
4379000,0.0324,0.013523,0.002678,0.000431,0.004936
4380000,0.0324,0.013523,0.002678,0.000431,0.004819
4381000,0.0324,0.013523,0.002678,0.000431,0.004819
4382000,0.0324,0.013523,0.002678,0.000431,0.005054
4383000,0.0324,0.013523,0.002678,0.000431,0.004936
4384000,0.0324,0.013523,0.002678,0.000431,0.004936
4385000,0.0324,0.013523,0.002678,0.000431,0.005054
4386000,0.0324,0.013523,0.002678,0.000431,0.004819
4387000,0.0324,0.013523,0.002678,0.000431,0.004936
4388000,0.0324,0.013523,0.002678,0.000431,0.004819
4389000,0.0324,0.013523,0.002678,0.000431,0.005054
4390000,0.0324,0.013523,0.002678,0.000431,0.004584
4391000,0.0324,0.013523,0.002678,0.000431,0.004936
4392000,0.0324,0.013523,0.002678,0.000431,0.004936
4393000,0.0324,0.013523,0.002678,0.000431,0.004584
4394000,0.0324,0.013523,0.002678,0.000431,0.004701
4395000,0.0324,0.013523,0.002678,0.000431,0.005171
4396000,0.0324,0.013523,0.002678,0.000431,0.004701
4397000,0.0324,0.013523,0.002678,0.000431,0.004466
4398000,0.0324,0.013523,0.002678,0.000431,0.004819
4399000,0.0324,0.013523,0.002678,0.000431,0.004936
4400000,0.0324,0.013523,0.002678,0.000431,0.005054
4401000,0.0324,0.013523,0.002678,0.000431,0.005171
4402000,0.0324,0.013523,0.002678,0.000431,0.005171
4403000,0.0324,0.013523,0.002678,0.000431,0.004936
4404000,0.0324,0.013523,0.002678,0.000431,0.004819
4405000,0.0324,0.013523,0.002678,0.000431,0.004819
4406000,0.0324,0.013523,0.002678,0.000431,0.004936
4407000,0.0324,0.013523,0.002678,0.000431,0.004819
4408000,0.0324,0.013523,0.002678,0.000431,0.004819
4409000,0.0324,0.013523,0.002678,0.000431,0.004819
4410000,0.0324,0.013523,0.002678,0.000431,0.004701
4411000,0.0324,0.013523,0.002678,0.000431,0.005054
4412000,0.0324,0.013523,0.002678,0.000431,0.004584
4413000,0.0324,0.013523,0.002678,0.000431,0.005289
4414000,0.0324,0.013523,0.002678,0.000431,0.004584
4415000,0.0324,0.013523,0.002678,0.000431,0.004701
4416000,0.0324,0.013523,0.002678,0.000431,0.005054
4417000,0.0324,0.013523,0.002678,0.000431,0.005171
4418000,0.0324,0.013523,0.002678,0.000431,0.004819
4419000,0.0324,0.013523,0.002678,0.000431,0.004936
4420000,0.0324,0.013523,0.002678,0.000431,0.004584
4421000,0.0324,0.013523,0.002678,0.000431,0.005289
4422000,0.0324,0.013523,0.002678,0.000431,0.004819
4423000,0.0324,0.013523,0.002678,0.000431,0.004936
4424000,0.0324,0.013523,0.002678,0.000431,0.004819
4425000,0.0324,0.013523,0.002678,0.000431,0.005054
4426000,0.0324,0.013523,0.002678,0.000431,0.005054
4427000,0.0324,0.013523,0.002678,0.000431,0.004819
4428000,0.0324,0.013523,0.002678,0.000431,0.004819
4429000,0.0324,0.013523,0.002678,0.000431,0.004349
4430000,0.0324,0.013523,0.002678,0.000431,0.004113
4431000,0.0324,0.013523,0.002678,0.000431,0.004113
4432000,0.0324,0.013523,0.002678,0.000431,0.004231
4433000,0.0324,0.013523,0.002678,0.000431,0.004231
4434000,0.0324,0.013523,0.002678,0.000431,0.004231
4435000,0.0324,0.013523,0.002678,0.000431,0.003878
4436000,0.0324,0.013523,0.002678,0.000431,0.004113
4437000,0.0324,0.013523,0.002678,0.000431,0.004231
4438000,0.0324,0.013523,0.002678,0.000431,0.004466
4439000,0.0324,0.013523,0.002678,0.000431,0.003643
4440000,0.0324,0.013523,0.002678,0.000431,0.004349
4441000,0.0324,0.013523,0.002678,0.000431,0.004584
4442000,0.0324,0.013523,0.002678,0.000431,0.003996
4443000,0.0324,0.013523,0.002678,0.000431,0.004231
4444000,0.0324,0.013523,0.002678,0.000431,0.004113
4445000,0.0324,0.013523,0.002678,0.000431,0.004231
4446000,0.0324,0.013523,0.002678,0.000431,0.004113
4447000,0.0324,0.013523,0.002678,0.000431,0.003996
4448000,0.0324,0.013523,0.002678,0.000431,0.004349
4449000,0.0324,0.013523,0.002678,0.000431,0.004231
4450000,0.0324,0.013523,0.002678,0.000431,0.004349
4451000,0.0324,0.013523,0.002678,0.000431,0.004466
4452000,0.0324,0.013523,0.002678,0.000431,0.004113
4453000,0.0324,0.013523,0.002678,0.000431,0.003996
4454000,0.0324,0.013523,0.002678,0.000431,0.004231
4455000,0.0324,0.013523,0.002678,0.000431,0.004466
4456000,0.0324,0.013523,0.002678,0.000431,0.004113
4457000,0.0324,0.013523,0.002678,0.000431,0.004231
4458000,0.0324,0.013523,0.002678,0.000431,0.004231
4459000,0.0324,0.013523,0.002678,0.000431,0.004113
4460000,0.0324,0.013523,0.002678,0.000431,0.004231
4461000,0.0324,0.013523,0.002678,0.000431,0.004231
4462000,0.0324,0.013523,0.002678,0.000431,0.004466
4463000,0.0324,0.013523,0.002678,0.000431,0.004466
4464000,0.0324,0.013523,0.002678,0.000431,0.004113
4465000,0.0324,0.013523,0.002678,0.000431,0.003643
4466000,0.0324,0.013523,0.002678,0.000431,0.003643
4467000,0.0324,0.013523,0.002678,0.000431,0.003643
4468000,0.0324,0.013523,0.002678,0.000431,0.003526
4469000,0.0324,0.013523,0.002678,0.000431,0.003408
4470000,0.0324,0.013523,0.002678,0.000431,0.003173
4471000,0.0324,0.013523,0.002678,0.000431,0.003408
4472000,0.0324,0.013523,0.002678,0.000431,0.003878
4473000,0.0324,0.013523,0.002678,0.000431,0.003291
4474000,0.0324,0.013523,0.002678,0.000431,0.003408
4475000,0.0324,0.013523,0.002678,0.000431,0.003408
4476000,0.0324,0.013523,0.002678,0.000431,0.003526
4477000,0.0324,0.013523,0.002678,0.000431,0.003761
4478000,0.0324,0.013523,0.002678,0.000431,0.003526
4479000,0.0324,0.013523,0.002678,0.000431,0.003526
4480000,0.0324,0.013523,0.002678,0.000431,0.003408
4481000,0.0324,0.013523,0.002678,0.000431,0.003761
4482000,0.0324,0.013523,0.002678,0.000431,0.003408
4483000,0.0324,0.013523,0.002678,0.000431,0.003761
4484000,0.0324,0.013523,0.002678,0.000431,0.003761
4485000,0.0324,0.013523,0.002678,0.000431,0.003408
4486000,0.0324,0.013523,0.002678,0.000431,0.003526
4487000,0.0324,0.013523,0.002678,0.000431,0.003526
4488000,0.0324,0.013523,0.002678,0.000431,0.003526
4489000,0.0324,0.013523,0.002678,0.000431,0.003643
4490000,0.0324,0.013523,0.002678,0.000431,0.003526
4491000,0.0324,0.013523,0.002678,0.000431,0.003761
4492000,0.0324,0.013523,0.002678,0.000431,0.003643
4493000,0.0324,0.013523,0.002678,0.000431,0.003291
4494000,0.0324,0.013523,0.002678,0.000431,0.003761
4495000,0.0324,0.013523,0.002678,0.000431,0.003173
4496000,0.0324,0.013523,0.002678,0.000431,0.003526
4497000,0.0324,0.013523,0.002678,0.000431,0.003291
4498000,0.0324,0.013523,0.002678,0.000431,0.003878
4499000,0.0324,0.013523,0.002678,0.000431,0.003526
4500000,0.0324,0.013523,0.002678,0.000431,0.003526
4501000,0.0324,0.013523,0.002678,0.000431,0.003526
4502000,0.0324,0.013523,0.002678,0.000431,0.003408
4503000,0.0324,0.013523,0.002678,0.000431,0.003643
4504000,0.0324,0.013523,0.002678,0.000431,0.003408
4505000,0.0324,0.013523,0.002678,0.000431,0.003643
4506000,0.0324,0.013523,0.002678,0.000431,0.003643
4507000,0.0324,0.013523,0.002678,0.000431,0.003056
4508000,0.0324,0.013523,0.002678,0.000431,0.003643
4509000,0.0324,0.013523,0.002678,0.000431,0.003408
4510000,0.0324,0.013523,0.002678,0.000431,0.003526
4511000,0.0324,0.013523,0.002678,0.000431,0.003643
4512000,0.0324,0.013523,0.002678,0.000431,0.003643
4513000,0.0324,0.013523,0.002678,0.000431,0.003408
4514000,0.0324,0.013523,0.002678,0.000431,0.003761
4515000,0.0324,0.013523,0.002678,0.000431,0.003643
4516000,0.0324,0.013523,0.002678,0.000431,0.003761
4517000,0.0324,0.013523,0.002678,0.000431,0.003526
4518000,0.0324,0.013523,0.002678,0.000431,0.003526
4519000,0.0324,0.013523,0.002678,0.000431,0.003526
4520000,0.0324,0.013523,0.002678,0.000431,0.003761
4521000,0.0324,0.013523,0.002678,0.000431,0.003408
4522000,0.0324,0.013523,0.002678,0.000431,0.003526
4523000,0.0324,0.013523,0.002678,0.000431,0.003878
4524000,0.0324,0.013523,0.002678,0.000431,0.003408
4525000,0.0324,0.013523,0.002678,0.000431,0.003408
4526000,0.0324,0.013523,0.002678,0.000431,0.003408
4527000,0.0324,0.013523,0.002678,0.000431,0.003526
4528000,0.0324,0.013523,0.002678,0.000431,0.003761
4529000,0.0324,0.013523,0.002678,0.000431,0.003408
4530000,0.0324,0.013523,0.002678,0.000431,0.003643
4531000,0.0324,0.013523,0.002678,0.000431,0.003526
4532000,0.0324,0.013523,0.002678,0.000431,0.003526
4533000,0.0324,0.013523,0.002678,0.000431,0.003173
4534000,0.0324,0.013523,0.002678,0.000431,0.003643
4535000,0.0324,0.013523,0.002678,0.000431,0.003526
4536000,0.0324,0.013523,0.002678,0.000431,0.003643
4537000,0.0324,0.013523,0.002678,0.000431,0.003408
4538000,0.0324,0.013523,0.002678,0.000431,0.003291
4539000,0.0324,0.013523,0.002678,0.000431,0.003291
4540000,0.0324,0.013523,0.002678,0.000431,0.003408
4541000,0.0324,0.013523,0.002678,0.000431,0.003526
4542000,0.0324,0.013523,0.002678,0.000431,0.003526
4543000,0.0324,0.013523,0.002678,0.000431,0.003526
4544000,0.0324,0.013523,0.002678,0.000431,0.003643
4545000,0.0324,0.013523,0.002678,0.000431,0.003291
4546000,0.0324,0.013523,0.002678,0.000431,0.003761
4547000,0.0324,0.013523,0.002678,0.000431,0.003173
4548000,0.0324,0.013523,0.002678,0.000431,0.003761
4549000,0.0324,0.013523,0.002678,0.000431,0.003408
4550000,0.0324,0.013523,0.002678,0.000431,0.003643
4551000,0.0324,0.013523,0.002678,0.000431,0.003643
4552000,0.0324,0.013523,0.002678,0.000431,0.003643
4553000,0.0324,0.013523,0.002678,0.000431,0.003291
4554000,0.0324,0.013523,0.002678,0.000431,0.003526
4555000,0.0324,0.013523,0.002678,0.000431,0.003643
4556000,0.0324,0.013523,0.002678,0.000431,0.003761
4557000,0.0324,0.013523,0.002678,0.000431,0.003408
4558000,0.0324,0.013523,0.002678,0.000431,0.003761
4559000,0.0324,0.013523,0.002678,0.000431,0.003761
4560000,0.0324,0.013523,0.002678,0.000431,0.003408
4561000,0.0324,0.013523,0.002678,0.000431,0.003643
4562000,0.0324,0.013523,0.002678,0.000431,0.003526
4563000,0.0324,0.013523,0.002678,0.000431,0.003056
4564000,0.0324,0.013523,0.002678,0.000431,0.003643
4565000,0.0324,0.013523,0.002678,0.000431,0.003526
4566000,0.0324,0.013523,0.002678,0.000431,0.003526
4567000,0.0324,0.013523,0.002678,0.000431,0.003996
4568000,0.0324,0.013523,0.002678,0.000431,0.003408
4569000,0.0324,0.013523,0.002678,0.000431,0.003526
4570000,0.0324,0.013523,0.002678,0.000431,0.003526
4571000,0.0324,0.013523,0.002678,0.000431,0.003643
4572000,0.0324,0.013523,0.002678,0.000431,0.003643
4573000,0.0324,0.013523,0.002678,0.000431,0.003291
4574000,0.0324,0.013523,0.002678,0.000431,0.003761
4575000,0.0324,0.013523,0.002678,0.000431,0.003643
4576000,0.0324,0.013523,0.002678,0.000431,0.003408
4577000,0.0324,0.013523,0.002678,0.000431,0.003291
4578000,0.0324,0.013523,0.002678,0.000431,0.003878
4579000,0.0324,0.013523,0.002678,0.000431,0.003643
4580000,0.0324,0.013523,0.002678,0.000431,0.003526
4581000,0.0324,0.013523,0.002678,0.000431,0.003526
4582000,0.0324,0.013523,0.002678,0.000431,0.003408
4583000,0.0324,0.013523,0.002678,0.000431,0.003408
4584000,0.0324,0.013523,0.002678,0.000431,0.003408
4585000,0.0324,0.013523,0.002678,0.000431,0.003761
4586000,0.0324,0.013523,0.002678,0.000431,0.003408
4587000,0.0324,0.013523,0.002678,0.000431,0.003526
4588000,0.0324,0.013523,0.002678,0.000431,0.003526
4589000,0.0324,0.013523,0.002678,0.000431,0.003408
4590000,0.0324,0.013523,0.002678,0.000431,0.003408
4591000,0.0324,0.013523,0.002678,0.000431,0.003643
4592000,0.0324,0.013523,0.002678,0.000431,0.003643
4593000,0.0324,0.013523,0.002678,0.000431,0.003526
4594000,0.0324,0.013523,0.002678,0.000431,0.003408
4595000,0.0324,0.013523,0.002678,0.000431,0.003761
4596000,0.0324,0.013523,0.002678,0.000431,0.003291
4597000,0.0324,0.013523,0.002678,0.000431,0.003526
4598000,0.0324,0.013523,0.002678,0.000431,0.003526
4599000,0.0324,0.013523,0.002678,0.000431,0.003526
4600000,0.0324,0.013523,0.002678,0.000431,0.003643
4601000,0.0324,0.013523,0.002678,0.000431,0.003526
4602000,0.0324,0.013523,0.002678,0.000431,0.003526
4603000,0.0324,0.013523,0.002678,0.000431,0.003408
4604000,0.0324,0.013523,0.002678,0.000431,0.003761
4605000,0.0324,0.013523,0.002678,0.000431,0.003526
4606000,0.0324,0.013523,0.002678,0.000431,0.003526
4607000,0.0324,0.013523,0.002678,0.000431,0.003408
4608000,0.0324,0.013523,0.002678,0.000431,0.003643
4609000,0.0324,0.013523,0.002678,0.000431,0.003643
4610000,0.0324,0.013523,0.002678,0.000431,0.003408
4611000,0.0324,0.013523,0.002678,0.000431,0.003526
4612000,0.0324,0.013523,0.002678,0.000431,0.003526
4613000,0.0324,0.013523,0.002678,0.000431,0.003408
4614000,0.0324,0.013523,0.002678,0.000431,0.003643
4615000,0.0324,0.013523,0.002678,0.000431,0.003526
4616000,0.0324,0.013523,0.002678,0.000431,0.003408
4617000,0.0324,0.013523,0.002678,0.000431,0.003761
4618000,0.0324,0.013523,0.002678,0.000431,0.003173
4619000,0.0324,0.013523,0.002678,0.000431,0.003408
4620000,0.0324,0.013523,0.002678,0.000431,0.003526
4621000,0.0324,0.013523,0.002678,0.000431,0.003878
4622000,0.0324,0.013523,0.002678,0.000431,0.003291
4623000,0.0324,0.013523,0.002678,0.000431,0.003996
4624000,0.0324,0.013523,0.002678,0.000431,0.003643
4625000,0.0324,0.013523,0.002678,0.000431,0.003291
4626000,0.0324,0.013523,0.002678,0.000431,0.003526
4627000,0.0324,0.013523,0.002678,0.000431,0.003643
4628000,0.0324,0.013523,0.002678,0.000431,0.003526
4629000,0.0324,0.013523,0.002678,0.000431,0.003526
4630000,0.0324,0.013523,0.002678,0.000431,0.003878
4631000,0.0324,0.013523,0.002678,0.000431,0.003878
4632000,0.0324,0.013523,0.002678,0.000431,0.003643
4633000,0.0324,0.013523,0.002678,0.000431,0.003761
4634000,0.0324,0.013523,0.002678,0.000431,0.003526
4635000,0.0324,0.013523,0.002678,0.000431,0.003761
4636000,0.0324,0.013523,0.002678,0.000431,0.003526
4637000,0.0324,0.013523,0.002678,0.000431,0.003761
4638000,0.0324,0.013523,0.002678,0.000431,0.003408
4639000,0.0324,0.013523,0.002678,0.000431,0.003408
4640000,0.0324,0.013523,0.002678,0.000431,0.003761
4641000,0.0324,0.013523,0.002678,0.000431,0.003291
4642000,0.0324,0.013523,0.002678,0.000431,0.003526
4643000,0.0324,0.013523,0.002678,0.000431,0.003526
4644000,0.0324,0.013523,0.002678,0.000431,0.003878
4645000,0.0324,0.013523,0.002678,0.000431,0.003526
4646000,0.0324,0.013523,0.002678,0.000431,0.003408
4647000,0.0324,0.013523,0.002678,0.000431,0.003408
4648000,0.0324,0.013523,0.002678,0.000431,0.003643
4649000,0.0324,0.013523,0.002678,0.000431,0.003526
4650000,0.0324,0.013523,0.002678,0.000431,0.003291
4651000,0.0324,0.013523,0.002678,0.000431,0.003643
4652000,0.0324,0.013523,0.002678,0.000431,0.003526
4653000,0.0324,0.013523,0.002678,0.000431,0.003408
4654000,0.0324,0.013523,0.002678,0.000431,0.003408
4655000,0.0324,0.013523,0.002678,0.000431,0.003643
4656000,0.0324,0.013523,0.002678,0.000431,0.003408
4657000,0.0324,0.013523,0.002678,0.000431,0.003643
4658000,0.0324,0.013523,0.002678,0.000431,0.003643
4659000,0.0324,0.013523,0.002678,0.000431,0.003173
4660000,0.0324,0.013523,0.002678,0.000431,0.003526
4661000,0.0324,0.013523,0.002678,0.000431,0.003291
4662000,0.0324,0.013523,0.002678,0.000431,0.003526
4663000,0.0324,0.013523,0.002678,0.000431,0.003526
4664000,0.0324,0.013523,0.002678,0.000431,0.003643
4665000,0.0324,0.013523,0.002678,0.000431,0.003643
4666000,0.0324,0.013523,0.002678,0.000431,0.003761
4667000,0.0324,0.013523,0.002678,0.000431,0.003761
4668000,0.0324,0.013523,0.002678,0.000431,0.003526
4669000,0.0324,0.013523,0.002678,0.000431,0.003526
4670000,0.0324,0.013523,0.002678,0.000431,0.003526
4671000,0.0324,0.013523,0.002678,0.000431,0.003408
4672000,0.0324,0.013523,0.002678,0.000431,0.002938
4673000,0.0324,0.013523,0.002678,0.000431,0.002468
4674000,0.0324,0.013523,0.002678,0.000431,0.002821
4675000,0.0324,0.013523,0.002678,0.000431,0.002703
4676000,0.0324,0.013523,0.002678,0.000431,0.002351
4677000,0.0324,0.013523,0.002678,0.000431,0.002351
4678000,0.0324,0.013523,0.002678,0.000431,0.002116
4679000,0.0324,0.013523,0.002678,0.000431,0.001998
4680000,0.0324,0.013523,0.002678,0.000431,0.002351
4681000,0.0324,0.013523,0.002678,0.000431,0.002116
4682000,0.0324,0.013523,0.002678,0.000431,0.002233
4683000,0.0324,0.013523,0.002678,0.000431,0.002116
4684000,0.0324,0.013523,0.002678,0.000431,0.002116
4685000,0.0324,0.013523,0.002678,0.000431,0.002233
4686000,0.0324,0.013523,0.002678,0.000431,0.002116
4687000,0.0324,0.013523,0.002678,0.000431,0.002233
4688000,0.0324,0.013523,0.002678,0.000431,0.002233
4689000,0.0324,0.013523,0.002678,0.000431,0.001880
4690000,0.0324,0.013523,0.002678,0.000431,0.002116
4691000,0.0324,0.013523,0.002678,0.000431,0.002351
4692000,0.0324,0.013523,0.002678,0.000431,0.002233
4693000,0.0324,0.013523,0.002678,0.000431,0.001998
4694000,0.0324,0.013523,0.002678,0.000431,0.001880
4695000,0.0324,0.013523,0.002678,0.000431,0.002116
4696000,0.0324,0.013523,0.002678,0.000431,0.002233
4697000,0.0324,0.013523,0.002678,0.000431,0.002116
4698000,0.0324,0.013523,0.002678,0.000431,0.002233
4699000,0.0324,0.013523,0.002678,0.000431,0.002233
4700000,0.0324,0.013523,0.002678,0.000431,0.001998
4701000,0.0324,0.013523,0.002678,0.000431,0.002116
4702000,0.0324,0.013523,0.002678,0.000431,0.001998
4703000,0.0324,0.013523,0.002678,0.000431,0.002233
4704000,0.0324,0.013523,0.002678,0.000431,0.001998
4705000,0.0324,0.013523,0.002678,0.000431,0.002116
4706000,0.0324,0.013523,0.002678,0.000431,0.002116
4707000,0.0324,0.013523,0.002678,0.000431,0.002116
4708000,0.0324,0.013523,0.002678,0.000431,0.001880
4709000,0.0324,0.013523,0.002678,0.000431,0.002116
4710000,0.0324,0.013523,0.002678,0.000431,0.002116
4711000,0.0324,0.013523,0.002678,0.000431,0.002233
4712000,0.0324,0.013523,0.002678,0.000431,0.001998
4713000,0.0324,0.013523,0.002678,0.000431,0.002233
4714000,0.0324,0.013523,0.002678,0.000431,0.001880
4715000,0.0324,0.013523,0.002678,0.000431,0.002351
4716000,0.0324,0.013523,0.002678,0.000431,0.002468
4717000,0.0324,0.013523,0.002678,0.000431,0.001998
4718000,0.0324,0.013523,0.002678,0.000431,0.002233
4719000,0.0324,0.013523,0.002678,0.000431,0.001998
4720000,0.0324,0.013523,0.002678,0.000431,0.002233
4721000,0.0324,0.013523,0.002678,0.000431,0.002116
4722000,0.0324,0.013523,0.002678,0.000431,0.002116
4723000,0.0324,0.013523,0.002678,0.000431,0.001998
4724000,0.0324,0.013523,0.002678,0.000431,0.002233
4725000,0.0324,0.013523,0.002678,0.000431,0.002116
4726000,0.0324,0.013523,0.002678,0.000431,0.001998
4727000,0.0324,0.013523,0.002678,0.000431,0.002233
4728000,0.0324,0.013523,0.002678,0.000431,0.001998
4729000,0.0324,0.013523,0.002678,0.000431,0.002116
4730000,0.0324,0.013523,0.002678,0.000431,0.002116
4731000,0.0324,0.013523,0.002678,0.000431,0.002116
4732000,0.0324,0.013523,0.002678,0.000431,0.002351
4733000,0.0324,0.013523,0.002678,0.000431,0.001763
4734000,0.0324,0.013523,0.002678,0.000431,0.002351
4735000,0.0324,0.013523,0.002678,0.000431,0.002116
4736000,0.0324,0.013523,0.002678,0.000431,0.001998
4737000,0.0324,0.013523,0.002678,0.000431,0.001410
4738000,0.0324,0.013523,0.002678,0.000431,0.001528
4739000,0.0324,0.013523,0.002678,0.000431,0.001293
4740000,0.0324,0.013523,0.002678,0.000431,0.001645
4741000,0.0324,0.013523,0.002678,0.000431,0.001528
4742000,0.0324,0.013523,0.002678,0.000431,0.001175
4743000,0.0324,0.013523,0.002678,0.000431,0.001528
4744000,0.0324,0.013523,0.002678,0.000431,0.001410
4745000,0.0324,0.013523,0.002678,0.000431,0.001528
4746000,0.0324,0.013523,0.002678,0.000431,0.001293
4747000,0.0324,0.013523,0.002678,0.000431,0.001410
4748000,0.0324,0.013523,0.002678,0.000431,0.001293
4749000,0.0324,0.013523,0.002678,0.000431,0.001528
4750000,0.0324,0.013523,0.002678,0.000431,0.001410
4751000,0.0324,0.013523,0.002678,0.000431,0.001410
4752000,0.0324,0.013523,0.002678,0.000431,0.001528
4753000,0.0324,0.013523,0.002678,0.000431,0.001528
4754000,0.0324,0.013523,0.002678,0.000431,0.001293
4755000,0.0324,0.013523,0.002678,0.000431,0.001410
4756000,0.0324,0.013523,0.002678,0.000431,0.001528
4757000,0.0324,0.013523,0.002678,0.000431,0.001410
4758000,0.0324,0.013523,0.002678,0.000431,0.001410
4759000,0.0324,0.013523,0.002678,0.000431,0.001528
4760000,0.0324,0.013523,0.002678,0.000431,0.001410
4761000,0.0324,0.013523,0.002678,0.000431,0.001528
4762000,0.0324,0.013523,0.002678,0.000431,0.001293
4763000,0.0324,0.013523,0.002678,0.000431,0.001410
4764000,0.0324,0.013523,0.002678,0.000431,0.001410
4765000,0.0324,0.013523,0.002678,0.000431,0.001528
4766000,0.0324,0.013523,0.002678,0.000431,0.001528
4767000,0.0324,0.013523,0.002678,0.000431,0.001175
4768000,0.0324,0.013523,0.002678,0.000431,0.001410
4769000,0.0324,0.013523,0.002678,0.000431,0.001410
4770000,0.0324,0.013523,0.002678,0.000431,0.001410
4771000,0.0324,0.013523,0.002678,0.000431,0.001293
4772000,0.0324,0.013523,0.002678,0.000431,0.001645
4773000,0.0324,0.013523,0.002678,0.000431,0.001528
4774000,0.0324,0.013523,0.002678,0.000431,0.001410
4775000,0.0324,0.013523,0.002678,0.000431,0.001528
4776000,0.0324,0.013523,0.002678,0.000431,0.001410
4777000,0.0324,0.013523,0.002678,0.000431,0.001410
4778000,0.0324,0.013523,0.002678,0.000431,0.001410
4779000,0.0324,0.013523,0.002678,0.000431,0.001410
4780000,0.0324,0.013523,0.002678,0.000431,0.001528
4781000,0.0324,0.013523,0.002678,0.000431,0.001293
4782000,0.0324,0.013523,0.002678,0.000431,0.001293
4783000,0.0324,0.013523,0.002678,0.000431,0.001410
4784000,0.0324,0.013523,0.002678,0.000431,0.001645
4785000,0.0324,0.013523,0.002678,0.000431,0.001175
4786000,0.0324,0.013523,0.002678,0.000431,0.001410
4787000,0.0324,0.013523,0.002678,0.000431,0.001528
4788000,0.0324,0.013523,0.002678,0.000431,0.001293
4789000,0.0324,0.013523,0.002678,0.000431,0.001528
4790000,0.0324,0.013523,0.002678,0.000431,0.001528
4791000,0.0324,0.013523,0.002678,0.000431,0.001410
4792000,0.0324,0.013523,0.002678,0.000431,0.001410
4793000,0.0324,0.013523,0.002678,0.000431,0.001528
4794000,0.0324,0.013523,0.002678,0.000431,0.001293
4795000,0.0324,0.013523,0.002678,0.000431,0.001528
4796000,0.0324,0.013523,0.002678,0.000431,0.001528
4797000,0.0324,0.013523,0.002678,0.000431,0.001410
4798000,0.0324,0.013523,0.002678,0.000431,0.001293
4799000,0.0324,0.013523,0.002678,0.000431,0.001528
4800000,0.0324,0.013523,0.002678,0.000431,0.001410
4801000,0.0324,0.013523,0.002678,0.000431,0.001175
4802000,0.0324,0.013523,0.002678,0.000431,0.001410
4803000,0.0324,0.013523,0.002678,0.000431,0.001293
4804000,0.0324,0.013523,0.002678,0.000431,0.001528
4805000,0.0324,0.013523,0.002678,0.000431,0.001410
4806000,0.0324,0.013523,0.002678,0.000431,0.001645
4807000,0.0324,0.013523,0.002678,0.000431,0.001410
4808000,0.0324,0.013523,0.002678,0.000431,0.001410
4809000,0.0324,0.013523,0.002678,0.000431,0.001410
4810000,0.0324,0.013523,0.002678,0.000431,0.001410
4811000,0.0324,0.013523,0.002678,0.000431,0.001410
4812000,0.0324,0.013523,0.002678,0.000431,0.001410
4813000,0.0324,0.013523,0.002678,0.000431,0.001410
4814000,0.0324,0.013523,0.002678,0.000431,0.001410
4815000,0.0324,0.013523,0.002678,0.000431,0.001410
4816000,0.0324,0.013523,0.002678,0.000431,0.001645
4817000,0.0324,0.013523,0.002678,0.000431,0.001410
4818000,0.0324,0.013523,0.002678,0.000431,0.001410
4819000,0.0324,0.013523,0.002678,0.000431,0.001645
4820000,0.0324,0.013523,0.002678,0.000431,0.001293
4821000,0.0324,0.013523,0.002678,0.000431,0.001293
4822000,0.0324,0.013523,0.002678,0.000431,0.001410
4823000,0.0324,0.013523,0.002678,0.000431,0.001528
4824000,0.0324,0.013523,0.002678,0.000431,0.001293
4825000,0.0324,0.013523,0.002678,0.000431,0.001645
4826000,0.0324,0.013523,0.002678,0.000431,0.001528
4827000,0.0324,0.013523,0.002678,0.000431,0.001528
4828000,0.0324,0.013523,0.002678,0.000431,0.001175
4829000,0.0324,0.013523,0.002678,0.000431,0.001410
4830000,0.0324,0.013523,0.002678,0.000431,0.001410
4831000,0.0324,0.013523,0.002678,0.000431,0.001293
4832000,0.0324,0.013523,0.002678,0.000431,0.001293
4833000,0.0324,0.013523,0.002678,0.000431,0.001528
4834000,0.0324,0.013523,0.002678,0.000431,0.001528
4835000,0.0324,0.013523,0.002678,0.000431,0.001293
4836000,0.0324,0.013523,0.002678,0.000431,0.001410
4837000,0.0324,0.013523,0.002678,0.000431,0.001528
4838000,0.0324,0.013523,0.002678,0.000431,0.001410
4839000,0.0324,0.013523,0.002678,0.000431,0.001293
4840000,0.0324,0.013523,0.002678,0.000431,0.001528
4841000,0.0324,0.013523,0.002678,0.000431,0.001410
4842000,0.0324,0.013523,0.002678,0.000431,0.001410
4843000,0.0324,0.013523,0.002678,0.000431,0.001410
4844000,0.0324,0.013523,0.002678,0.000431,0.001528
4845000,0.0324,0.013523,0.002678,0.000431,0.001528
4846000,0.0324,0.013523,0.002678,0.000431,0.001293
4847000,0.0324,0.013523,0.002678,0.000431,0.001293
4848000,0.0324,0.013523,0.002678,0.000431,0.001410
4849000,0.0324,0.013523,0.002678,0.000431,0.001528
4850000,0.0324,0.013523,0.002678,0.000431,0.001293
4851000,0.0324,0.013523,0.002678,0.000431,0.001410
4852000,0.0324,0.013523,0.002678,0.000431,0.001528
4853000,0.0324,0.013523,0.002678,0.000431,0.001528
4854000,0.0324,0.013523,0.002678,0.000431,0.001410
4855000,0.0324,0.013523,0.002678,0.000431,0.001410
4856000,0.0324,0.013523,0.002678,0.000431,0.001293
4857000,0.0324,0.013523,0.002678,0.000431,0.001410
4858000,0.0324,0.013523,0.002678,0.000431,0.001293
4859000,0.0324,0.013523,0.002678,0.000431,0.001293
4860000,0.0324,0.013523,0.002678,0.000431,0.001645
4861000,0.0324,0.013523,0.002678,0.000431,0.001410
4862000,0.0324,0.013523,0.002678,0.000431,0.001410
4863000,0.0324,0.013523,0.002678,0.000431,0.001410
4864000,0.0324,0.013523,0.002678,0.000431,0.001645
4865000,0.0324,0.013523,0.002678,0.000431,0.001293
4866000,0.0324,0.013523,0.002678,0.000431,0.001528
4867000,0.0324,0.013523,0.002678,0.000431,0.001528
4868000,0.0324,0.013523,0.002678,0.000431,0.001528
4869000,0.0324,0.013523,0.002678,0.000431,0.001293
4870000,0.0324,0.013523,0.002678,0.000431,0.001175
4871000,0.0324,0.013523,0.002678,0.000431,0.001410
4872000,0.0324,0.013523,0.002678,0.000431,0.001528
4873000,0.0324,0.013523,0.002678,0.000431,0.000705
4874000,0.0324,0.013523,0.002678,0.000431,0.000705
4875000,0.0324,0.013523,0.002678,0.000431,0.000823
4876000,0.0324,0.013523,0.002678,0.000431,0.000823
4877000,0.0324,0.013523,0.002678,0.000431,0.000705
4878000,0.0324,0.013523,0.002678,0.000431,0.000705
4879000,0.0324,0.013523,0.002678,0.000431,0.000705
4880000,0.0324,0.013523,0.002678,0.000431,0.000705
4881000,0.0324,0.013523,0.002678,0.000431,0.000705
4882000,0.0324,0.013523,0.002678,0.000431,0.000823
4883000,0.0324,0.013523,0.002678,0.000431,0.000823
4884000,0.0324,0.013523,0.002678,0.000431,0.000470
4885000,0.0324,0.013523,0.002678,0.000431,0.000823
4886000,0.0324,0.013523,0.002678,0.000431,0.000588
4887000,0.0324,0.013523,0.002678,0.000431,0.000823
4888000,0.0324,0.013523,0.002678,0.000431,0.000705
4889000,0.0324,0.013523,0.002678,0.000431,0.000705
4890000,0.0324,0.013523,0.002678,0.000431,0.000823
4891000,0.0324,0.013523,0.002678,0.000431,0.000705
4892000,0.0324,0.013523,0.002678,0.000431,0.000705
4893000,0.0324,0.013523,0.002678,0.000431,0.000588
4894000,0.0324,0.013523,0.002678,0.000431,0.000588
4895000,0.0324,0.013523,0.002678,0.000431,0.000823
4896000,0.0324,0.013523,0.002678,0.000431,0.000705
4897000,0.0324,0.013523,0.002678,0.000431,0.000705
4898000,0.0324,0.013523,0.002678,0.000431,0.000588
4899000,0.0324,0.013523,0.002678,0.000431,0.000705
4900000,0.0324,0.013523,0.002678,0.000431,0.000823
4901000,0.0324,0.013523,0.002678,0.000431,0.000588
4902000,0.0324,0.013523,0.002678,0.000431,0.000705
4903000,0.0324,0.013523,0.002678,0.000431,0.000823
4904000,0.0324,0.013523,0.002678,0.000431,0.000588
4905000,0.0324,0.013523,0.002678,0.000431,0.000588
4906000,0.0324,0.013523,0.002678,0.000431,0.000705
4907000,0.0324,0.013523,0.002678,0.000431,0.000705
4908000,0.0324,0.013523,0.002678,0.000431,0.000705
4909000,0.0324,0.013523,0.002678,0.000431,0.000705
4910000,0.0324,0.013523,0.002678,0.000431,0.000705
4911000,0.0324,0.013523,0.002678,0.000431,0.000823
4912000,0.0324,0.013523,0.002678,0.000431,0.000705
4913000,0.0324,0.013523,0.002678,0.000431,0.000470
4914000,0.0324,0.013523,0.002678,0.000431,0.000823
4915000,0.0324,0.013523,0.002678,0.000431,0.000705
4916000,0.0324,0.013523,0.002678,0.000431,0.000705
4917000,0.0324,0.013523,0.002678,0.000431,0.000705
4918000,0.0324,0.013523,0.002678,0.000431,0.000705
4919000,0.0324,0.013523,0.002678,0.000431,0.000705
4920000,0.0324,0.013523,0.002678,0.000431,0.000705
4921000,0.0324,0.013523,0.002678,0.000431,0.000588
4922000,0.0324,0.013523,0.002678,0.000431,0.000705
4923000,0.0324,0.013523,0.002678,0.000431,0.000588
4924000,0.0324,0.013523,0.002678,0.000431,0.000705
4925000,0.0324,0.013523,0.002678,0.000431,0.000705
4926000,0.0324,0.013523,0.002678,0.000431,0.000705
4927000,0.0324,0.013523,0.002678,0.000431,0.000823
4928000,0.0324,0.013523,0.002678,0.000431,0.000470
4929000,0.0324,0.013523,0.002678,0.000431,0.000705
4930000,0.0324,0.013523,0.002678,0.000431,0.000705
4931000,0.0324,0.013523,0.002678,0.000431,0.000823
4932000,0.0324,0.013523,0.002678,0.000431,0.000588
4933000,0.0324,0.013523,0.002678,0.000431,0.000705
4934000,0.0324,0.013523,0.002678,0.000431,0.000823
4935000,0.0324,0.013523,0.002678,0.000431,0.000823
4936000,0.0324,0.013523,0.002678,0.000431,0.000705
4937000,0.0324,0.013523,0.002678,0.000431,0.000705
4938000,0.0324,0.013523,0.002678,0.000431,0.000705
4939000,0.0324,0.013523,0.002678,0.000431,0.000823
4940000,0.0324,0.013523,0.002678,0.000431,0.000705
4941000,0.0324,0.013523,0.002678,0.000431,0.000588
4942000,0.0324,0.013523,0.002678,0.000431,0.000823
4943000,0.0324,0.013523,0.002678,0.000431,0.000588
4944000,0.0324,0.013523,0.002678,0.000431,0.000823
4945000,0.0324,0.013523,0.002678,0.000431,0.000823
4946000,0.0324,0.013523,0.002678,0.000431,0.000705
4947000,0.0324,0.013523,0.002678,0.000431,0.000705
4948000,0.0324,0.013523,0.002678,0.000431,0.000705
4949000,0.0324,0.013523,0.002678,0.000431,0.000705
4950000,0.0324,0.013523,0.002678,0.000431,0.000705
4951000,0.0324,0.013523,0.002678,0.000431,0.000705
4952000,0.0324,0.013523,0.002678,0.000431,0.000588
4953000,0.0324,0.013523,0.002678,0.000431,0.000823
4954000,0.0324,0.013523,0.002678,0.000431,0.000705
4955000,0.0324,0.013523,0.002678,0.000431,0.000588
4956000,0.0324,0.013523,0.002678,0.000431,0.000823
4957000,0.0324,0.013523,0.002678,0.000431,0.000705
4958000,0.0324,0.013523,0.002678,0.000431,0.000705
4959000,0.0324,0.013523,0.002678,0.000431,0.000823
4960000,0.0324,0.013523,0.002678,0.000431,0.000823
4961000,0.0324,0.013523,0.002678,0.000431,0.000705
4962000,0.0324,0.013523,0.002678,0.000431,0.000705
4963000,0.0324,0.013523,0.002678,0.000431,0.000705
4964000,0.0324,0.013523,0.002678,0.000431,0.000705
4965000,0.0324,0.013523,0.002678,0.000431,0.000705
4966000,0.0324,0.013523,0.002678,0.000431,0.000823
4967000,0.0324,0.013523,0.002678,0.000431,0.000705
4968000,0.0324,0.013523,0.002678,0.000431,0.000823
4969000,0.0324,0.013523,0.002678,0.000431,0.000705
4970000,0.0324,0.013523,0.002678,0.000431,0.000823
4971000,0.0324,0.013523,0.002678,0.000431,0.000823
4972000,0.0324,0.013523,0.002678,0.000431,0.000588
4973000,0.0324,0.013523,0.002678,0.000431,0.000823
4974000,0.0324,0.013523,0.002678,0.000431,0.000470
4975000,0.0324,0.013523,0.002678,0.000431,0.000823
4976000,0.0324,0.013523,0.002678,0.000431,0.000823
4977000,0.0324,0.013523,0.002678,0.000431,0.000705
4978000,0.0324,0.013523,0.002678,0.000431,0.000823
4979000,0.0324,0.013523,0.002678,0.000431,0.000705
4980000,0.0324,0.013523,0.002678,0.000431,0.000705
4981000,0.0324,0.013523,0.002678,0.000431,0.000705
4982000,0.0324,0.013523,0.002678,0.000431,0.000705
4983000,0.0324,0.013523,0.002678,0.000431,0.000823
4984000,0.0324,0.013523,0.002678,0.000431,0.000705
4985000,0.0324,0.013523,0.002678,0.000431,0.000705
4986000,0.0324,0.013523,0.002678,0.000431,0.000823
4987000,0.0324,0.013523,0.002678,0.000431,0.000823
4988000,0.0324,0.013523,0.002678,0.000431,0.000588
4989000,0.0324,0.013523,0.002678,0.000431,0.000588
4990000,0.0324,0.013523,0.002678,0.000431,0.000823
4991000,0.0324,0.013523,0.002678,0.000431,0.000705
4992000,0.0324,0.013523,0.002678,0.000431,0.000588
4993000,0.0324,0.013523,0.002678,0.000431,0.000705
4994000,0.0324,0.013523,0.002678,0.000431,0.000705
4995000,0.0324,0.013523,0.002678,0.000431,0.000705
4996000,0.0324,0.013523,0.002678,0.000431,0.000823
4997000,0.0324,0.013523,0.002678,0.000431,0.000823
4998000,0.0324,0.013523,0.002678,0.000431,0.000705
4999000,0.0324,0.013523,0.002678,0.000431,0.000705
