Cycle,Area(mm^2),PeakDynamic(W),SubthresholdLeakage(W),GateLeakage(W),RunTimeDynamic(W)
129000000,0.0324,0.013523,0.002678,0.000431,0.000823
129001000,0.0324,0.013523,0.002678,0.000431,0.000823
129002000,0.0324,0.013523,0.002678,0.000431,0.000940
129003000,0.0324,0.013523,0.002678,0.000431,0.000823
129004000,0.0324,0.013523,0.002678,0.000431,0.000823
129005000,0.0324,0.013523,0.002678,0.000431,0.000705
129006000,0.0324,0.013523,0.002678,0.000431,0.000940
129007000,0.0324,0.013523,0.002678,0.000431,0.000940
129008000,0.0324,0.013523,0.002678,0.000431,0.001763
129009000,0.0324,0.013523,0.002678,0.000431,0.259502
129010000,0.0324,0.013523,0.002678,0.000431,0.648285
129011000,0.0324,0.013523,0.002678,0.000431,0.337071
129012000,0.0324,0.013523,0.002678,0.000431,0.132572
129013000,0.0324,0.013523,0.002678,0.000431,0.146205
129014000,0.0324,0.013523,0.002678,0.000431,0.614555
129015000,0.0324,0.013523,0.002678,0.000431,0.262088
129016000,0.0324,0.013523,0.002678,0.000431,0.300755
129017000,0.0324,0.013523,0.002678,0.000431,0.232001
129018000,0.0324,0.013523,0.002678,0.000431,0.147498
129019000,0.0324,0.013523,0.002678,0.000431,0.123287
129020000,0.0324,0.013523,0.002678,0.000431,0.249042
129021000,0.0324,0.013523,0.002678,0.000431,0.350352
129022000,0.0324,0.013523,0.002678,0.000431,0.053240
129023000,0.0324,0.013523,0.002678,0.000431,0.041487
129024000,0.0324,0.013523,0.002678,0.000431,0.040900
129025000,0.0324,0.013523,0.002678,0.000431,0.037021
129026000,0.0324,0.013523,0.002678,0.000431,0.035141
129027000,0.0324,0.013523,0.002678,0.000431,0.027502
129028000,0.0324,0.013523,0.002678,0.000431,0.031027
129029000,0.0324,0.013523,0.002678,0.000431,0.026914
129030000,0.0324,0.013523,0.002678,0.000431,0.024211
129031000,0.0324,0.013523,0.002678,0.000431,0.023506
129032000,0.0324,0.013523,0.002678,0.000431,0.017629
129033000,0.0324,0.013523,0.002678,0.000431,0.015396
129034000,0.0324,0.013523,0.002678,0.000431,0.016219
129035000,0.0324,0.013523,0.002678,0.000431,0.016454
129036000,0.0324,0.013523,0.002678,0.000431,0.015514
129037000,0.0324,0.013523,0.002678,0.000431,0.017042
129038000,0.0324,0.013523,0.002678,0.000431,0.016454
129039000,0.0324,0.013523,0.002678,0.000431,0.012811
129040000,0.0324,0.013523,0.002678,0.000431,0.013046
129041000,0.0324,0.013523,0.002678,0.000431,0.012576
129042000,0.0324,0.013523,0.002678,0.000431,0.011518
129043000,0.0324,0.013523,0.002678,0.000431,0.014809
129044000,0.0324,0.013523,0.002678,0.000431,0.010813
129045000,0.0324,0.013523,0.002678,0.000431,0.011283
129046000,0.0324,0.013523,0.002678,0.000431,0.011753
129047000,0.0324,0.013523,0.002678,0.000431,0.011048
129048000,0.0324,0.013523,0.002678,0.000431,0.011283
129049000,0.0324,0.013523,0.002678,0.000431,0.011635
129050000,0.0324,0.013523,0.002678,0.000431,0.011518
129051000,0.0324,0.013523,0.002678,0.000431,0.010930
129052000,0.0324,0.013523,0.002678,0.000431,0.014691
129053000,0.0324,0.013523,0.002678,0.000431,0.010695
129054000,0.0324,0.013523,0.002678,0.000431,0.011165
129055000,0.0324,0.013523,0.002678,0.000431,0.008580
129056000,0.0324,0.013523,0.002678,0.000431,0.007874
129057000,0.0324,0.013523,0.002678,0.000431,0.009637
129058000,0.0324,0.013523,0.002678,0.000431,0.007052
129059000,0.0324,0.013523,0.002678,0.000431,0.007169
129060000,0.0324,0.013523,0.002678,0.000431,0.006582
129061000,0.0324,0.013523,0.002678,0.000431,0.006464
129062000,0.0324,0.013523,0.002678,0.000431,0.005759
129063000,0.0324,0.013523,0.002678,0.000431,0.007052
129064000,0.0324,0.013523,0.002678,0.000431,0.006347
129065000,0.0324,0.013523,0.002678,0.000431,0.006229
129066000,0.0324,0.013523,0.002678,0.000431,0.006817
129067000,0.0324,0.013523,0.002678,0.000431,0.006111
129068000,0.0324,0.013523,0.002678,0.000431,0.006464
129069000,0.0324,0.013523,0.002678,0.000431,0.006347
129070000,0.0324,0.013523,0.002678,0.000431,0.006699
129071000,0.0324,0.013523,0.002678,0.000431,0.006229
129072000,0.0324,0.013523,0.002678,0.000431,0.006464
129073000,0.0324,0.013523,0.002678,0.000431,0.006464
129074000,0.0324,0.013523,0.002678,0.000431,0.006464
129075000,0.0324,0.013523,0.002678,0.000431,0.006229
129076000,0.0324,0.013523,0.002678,0.000431,0.005994
129077000,0.0324,0.013523,0.002678,0.000431,0.007052
129078000,0.0324,0.013523,0.002678,0.000431,0.006229
129079000,0.0324,0.013523,0.002678,0.000431,0.005406
129080000,0.0324,0.013523,0.002678,0.000431,0.007169
129081000,0.0324,0.013523,0.002678,0.000431,0.005994
129082000,0.0324,0.013523,0.002678,0.000431,0.005289
129083000,0.0324,0.013523,0.002678,0.000431,0.004936
129084000,0.0324,0.013523,0.002678,0.000431,0.004701
129085000,0.0324,0.013523,0.002678,0.000431,0.005054
129086000,0.0324,0.013523,0.002678,0.000431,0.005171
129087000,0.0324,0.013523,0.002678,0.000431,0.005171
129088000,0.0324,0.013523,0.002678,0.000431,0.004466
129089000,0.0324,0.013523,0.002678,0.000431,0.005054
129090000,0.0324,0.013523,0.002678,0.000431,0.005171
129091000,0.0324,0.013523,0.002678,0.000431,0.005171
129092000,0.0324,0.013523,0.002678,0.000431,0.004466
129093000,0.0324,0.013523,0.002678,0.000431,0.005289
129094000,0.0324,0.013523,0.002678,0.000431,0.004466
129095000,0.0324,0.013523,0.002678,0.000431,0.005289
129096000,0.0324,0.013523,0.002678,0.000431,0.005171
129097000,0.0324,0.013523,0.002678,0.000431,0.004584
129098000,0.0324,0.013523,0.002678,0.000431,0.008815
129099000,0.0324,0.013523,0.002678,0.000431,0.003291
129100000,0.0324,0.013523,0.002678,0.000431,0.003643
129101000,0.0324,0.013523,0.002678,0.000431,0.003056
129102000,0.0324,0.013523,0.002678,0.000431,0.003291
129103000,0.0324,0.013523,0.002678,0.000431,0.003056
129104000,0.0324,0.013523,0.002678,0.000431,0.003408
129105000,0.0324,0.013523,0.002678,0.000431,0.003408
129106000,0.0324,0.013523,0.002678,0.000431,0.003056
129107000,0.0324,0.013523,0.002678,0.000431,0.005759
129108000,0.0324,0.013523,0.002678,0.000431,0.002351
129109000,0.0324,0.013523,0.002678,0.000431,0.002468
129110000,0.0324,0.013523,0.002678,0.000431,0.002351
129111000,0.0324,0.013523,0.002678,0.000431,0.002468
129112000,0.0324,0.013523,0.002678,0.000431,0.002233
129113000,0.0324,0.013523,0.002678,0.000431,0.002468
129114000,0.0324,0.013523,0.002678,0.000431,0.002468
129115000,0.0324,0.013523,0.002678,0.000431,0.002233
129116000,0.0324,0.013523,0.002678,0.000431,0.002821
129117000,0.0324,0.013523,0.002678,0.000431,0.002233
129118000,0.0324,0.013523,0.002678,0.000431,0.002468
129119000,0.0324,0.013523,0.002678,0.000431,0.002233
129120000,0.0324,0.013523,0.002678,0.000431,0.002468
129121000,0.0324,0.013523,0.002678,0.000431,0.002703
129122000,0.0324,0.013523,0.002678,0.000431,0.001998
129123000,0.0324,0.013523,0.002678,0.000431,0.002703
129124000,0.0324,0.013523,0.002678,0.000431,0.002233
129125000,0.0324,0.013523,0.002678,0.000431,0.002586
129126000,0.0324,0.013523,0.002678,0.000431,0.002468
129127000,0.0324,0.013523,0.002678,0.000431,0.002233
129128000,0.0324,0.013523,0.002678,0.000431,0.002351
129129000,0.0324,0.013523,0.002678,0.000431,0.002586
129130000,0.0324,0.013523,0.002678,0.000431,0.002586
129131000,0.0324,0.013523,0.002678,0.000431,0.003996
129132000,0.0324,0.013523,0.002678,0.000431,0.001763
129133000,0.0324,0.013523,0.002678,0.000431,0.001645
129134000,0.0324,0.013523,0.002678,0.000431,0.001645
129135000,0.0324,0.013523,0.002678,0.000431,0.001410
129136000,0.0324,0.013523,0.002678,0.000431,0.001645
129137000,0.0324,0.013523,0.002678,0.000431,0.001410
129138000,0.0324,0.013523,0.002678,0.000431,0.001645
129139000,0.0324,0.013523,0.002678,0.000431,0.001880
129140000,0.0324,0.013523,0.002678,0.000431,0.001175
129141000,0.0324,0.013523,0.002678,0.000431,0.001880
129142000,0.0324,0.013523,0.002678,0.000431,0.001293
129143000,0.0324,0.013523,0.002678,0.000431,0.001763
129144000,0.0324,0.013523,0.002678,0.000431,0.001645
129145000,0.0324,0.013523,0.002678,0.000431,0.001410
129146000,0.0324,0.013523,0.002678,0.000431,0.001880
129147000,0.0324,0.013523,0.002678,0.000431,0.001293
129148000,0.0324,0.013523,0.002678,0.000431,0.001763
129149000,0.0324,0.013523,0.002678,0.000431,0.001645
129150000,0.0324,0.013523,0.002678,0.000431,0.001410
129151000,0.0324,0.013523,0.002678,0.000431,0.001645
129152000,0.0324,0.013523,0.002678,0.000431,0.001528
129153000,0.0324,0.013523,0.002678,0.000431,0.001528
129154000,0.0324,0.013523,0.002678,0.000431,0.001645
129155000,0.0324,0.013523,0.002678,0.000431,0.001645
129156000,0.0324,0.013523,0.002678,0.000431,0.001410
129157000,0.0324,0.013523,0.002678,0.000431,0.001645
129158000,0.0324,0.013523,0.002678,0.000431,0.001645
129159000,0.0324,0.013523,0.002678,0.000431,0.001645
129160000,0.0324,0.013523,0.002678,0.000431,0.001410
129161000,0.0324,0.013523,0.002678,0.000431,0.001645
129162000,0.0324,0.013523,0.002678,0.000431,0.001410
129163000,0.0324,0.013523,0.002678,0.000431,0.001645
129164000,0.0324,0.013523,0.002678,0.000431,0.001880
129165000,0.0324,0.013523,0.002678,0.000431,0.001175
129166000,0.0324,0.013523,0.002678,0.000431,0.001880
129167000,0.0324,0.013523,0.002678,0.000431,0.001410
129168000,0.0324,0.013523,0.002678,0.000431,0.001645
129169000,0.0324,0.013523,0.002678,0.000431,0.001645
129170000,0.0324,0.013523,0.002678,0.000431,0.001410
129171000,0.0324,0.013523,0.002678,0.000431,0.001645
129172000,0.0324,0.013523,0.002678,0.000431,0.001645
129173000,0.0324,0.013523,0.002678,0.000431,0.001645
129174000,0.0324,0.013523,0.002678,0.000431,0.001410
129175000,0.0324,0.013523,0.002678,0.000431,0.001645
129176000,0.0324,0.013523,0.002678,0.000431,0.001645
129177000,0.0324,0.013523,0.002678,0.000431,0.001645
129178000,0.0324,0.013523,0.002678,0.000431,0.001410
129179000,0.0324,0.013523,0.002678,0.000431,0.001645
129180000,0.0324,0.013523,0.002678,0.000431,0.001410
129181000,0.0324,0.013523,0.002678,0.000431,0.001645
129182000,0.0324,0.013523,0.002678,0.000431,0.001880
129183000,0.0324,0.013523,0.002678,0.000431,0.001175
129184000,0.0324,0.013523,0.002678,0.000431,0.001880
129185000,0.0324,0.013523,0.002678,0.000431,0.001645
129186000,0.0324,0.013523,0.002678,0.000431,0.001645
129187000,0.0324,0.013523,0.002678,0.000431,0.001645
129188000,0.0324,0.013523,0.002678,0.000431,0.001645
129189000,0.0324,0.013523,0.002678,0.000431,0.001645
129190000,0.0324,0.013523,0.002678,0.000431,0.001645
129191000,0.0324,0.013523,0.002678,0.000431,0.001645
129192000,0.0324,0.013523,0.002678,0.000431,0.001763
129193000,0.0324,0.013523,0.002678,0.000431,0.001528
129194000,0.0324,0.013523,0.002678,0.000431,0.001645
129195000,0.0324,0.013523,0.002678,0.000431,0.001645
129196000,0.0324,0.013523,0.002678,0.000431,0.001645
129197000,0.0324,0.013523,0.002678,0.000431,0.001528
129198000,0.0324,0.013523,0.002678,0.000431,0.001763
129199000,0.0324,0.013523,0.002678,0.000431,0.001880
129200000,0.0324,0.013523,0.002678,0.000431,0.001410
129201000,0.0324,0.013523,0.002678,0.000431,0.001645
129202000,0.0324,0.013523,0.002678,0.000431,0.001645
129203000,0.0324,0.013523,0.002678,0.000431,0.001763
129204000,0.0324,0.013523,0.002678,0.000431,0.001528
129205000,0.0324,0.013523,0.002678,0.000431,0.001645
129206000,0.0324,0.013523,0.002678,0.000431,0.001880
129207000,0.0324,0.013523,0.002678,0.000431,0.001410
129208000,0.0324,0.013523,0.002678,0.000431,0.001645
129209000,0.0324,0.013523,0.002678,0.000431,0.001763
129210000,0.0324,0.013523,0.002678,0.000431,0.001763
129211000,0.0324,0.013523,0.002678,0.000431,0.001410
129212000,0.0324,0.013523,0.002678,0.000431,0.001645
129213000,0.0324,0.013523,0.002678,0.000431,0.001880
129214000,0.0324,0.013523,0.002678,0.000431,0.001293
129215000,0.0324,0.013523,0.002678,0.000431,0.001763
129216000,0.0324,0.013523,0.002678,0.000431,0.001645
129217000,0.0324,0.013523,0.002678,0.000431,0.001410
129218000,0.0324,0.013523,0.002678,0.000431,0.001645
129219000,0.0324,0.013523,0.002678,0.000431,0.001528
129220000,0.0324,0.013523,0.002678,0.000431,0.001528
129221000,0.0324,0.013523,0.002678,0.000431,0.001645
129222000,0.0324,0.013523,0.002678,0.000431,0.001645
129223000,0.0324,0.013523,0.002678,0.000431,0.001410
129224000,0.0324,0.013523,0.002678,0.000431,0.001763
129225000,0.0324,0.013523,0.002678,0.000431,0.001763
129226000,0.0324,0.013523,0.002678,0.000431,0.001645
129227000,0.0324,0.013523,0.002678,0.000431,0.001410
129228000,0.0324,0.013523,0.002678,0.000431,0.001880
129229000,0.0324,0.013523,0.002678,0.000431,0.001645
129230000,0.0324,0.013523,0.002678,0.000431,0.001645
129231000,0.0324,0.013523,0.002678,0.000431,0.001645
129232000,0.0324,0.013523,0.002678,0.000431,0.001645
129233000,0.0324,0.013523,0.002678,0.000431,0.001645
129234000,0.0324,0.013523,0.002678,0.000431,0.001645
129235000,0.0324,0.013523,0.002678,0.000431,0.001645
129236000,0.0324,0.013523,0.002678,0.000431,0.001763
129237000,0.0324,0.013523,0.002678,0.000431,0.001528
129238000,0.0324,0.013523,0.002678,0.000431,0.001645
129239000,0.0324,0.013523,0.002678,0.000431,0.001645
129240000,0.0324,0.013523,0.002678,0.000431,0.001645
129241000,0.0324,0.013523,0.002678,0.000431,0.001528
129242000,0.0324,0.013523,0.002678,0.000431,0.001763
129243000,0.0324,0.013523,0.002678,0.000431,0.001880
129244000,0.0324,0.013523,0.002678,0.000431,0.001175
129245000,0.0324,0.013523,0.002678,0.000431,0.001880
129246000,0.0324,0.013523,0.002678,0.000431,0.001293
129247000,0.0324,0.013523,0.002678,0.000431,0.001763
129248000,0.0324,0.013523,0.002678,0.000431,0.001645
129249000,0.0324,0.013523,0.002678,0.000431,0.001410
129250000,0.0324,0.013523,0.002678,0.000431,0.001645
129251000,0.0324,0.013523,0.002678,0.000431,0.001528
129252000,0.0324,0.013523,0.002678,0.000431,0.001528
129253000,0.0324,0.013523,0.002678,0.000431,0.001645
129254000,0.0324,0.013523,0.002678,0.000431,0.001645
129255000,0.0324,0.013523,0.002678,0.000431,0.001880
129256000,0.0324,0.013523,0.002678,0.000431,0.001293
129257000,0.0324,0.013523,0.002678,0.000431,0.001763
129258000,0.0324,0.013523,0.002678,0.000431,0.001880
129259000,0.0324,0.013523,0.002678,0.000431,0.001645
129260000,0.0324,0.013523,0.002678,0.000431,0.001410
129261000,0.0324,0.013523,0.002678,0.000431,0.001645
129262000,0.0324,0.013523,0.002678,0.000431,0.001880
129263000,0.0324,0.013523,0.002678,0.000431,0.001645
129264000,0.0324,0.013523,0.002678,0.000431,0.001410
129265000,0.0324,0.013523,0.002678,0.000431,0.001880
129266000,0.0324,0.013523,0.002678,0.000431,0.001645
129267000,0.0324,0.013523,0.002678,0.000431,0.001410
129268000,0.0324,0.013523,0.002678,0.000431,0.001763
129269000,0.0324,0.013523,0.002678,0.000431,0.001763
129270000,0.0324,0.013523,0.002678,0.000431,0.001645
129271000,0.0324,0.013523,0.002678,0.000431,0.001410
129272000,0.0324,0.013523,0.002678,0.000431,0.001880
129273000,0.0324,0.013523,0.002678,0.000431,0.054651
129274000,0.0324,0.013523,0.002678,0.000431,0.452484
129275000,0.0324,0.013523,0.002678,0.000431,0.601744
129276000,0.0324,0.013523,0.002678,0.000431,0.131161
129277000,0.0324,0.013523,0.002678,0.000431,0.134922
129278000,0.0324,0.013523,0.002678,0.000431,0.553675
129279000,0.0324,0.013523,0.002678,0.000431,0.285006
129280000,0.0324,0.013523,0.002678,0.000431,0.241168
129281000,0.0324,0.013523,0.002678,0.000431,0.278542
129282000,0.0324,0.013523,0.002678,0.000431,0.136333
129283000,0.0324,0.013523,0.002678,0.000431,0.148321
129284000,0.0324,0.013523,0.002678,0.000431,0.141151
129285000,0.0324,0.013523,0.002678,0.000431,0.222128
129286000,0.0324,0.013523,0.002678,0.000431,0.348001
129287000,0.0324,0.013523,0.002678,0.000431,0.026561
129288000,0.0324,0.013523,0.002678,0.000431,0.024916
129289000,0.0324,0.013523,0.002678,0.000431,0.025621
129290000,0.0324,0.013523,0.002678,0.000431,0.027737
129291000,0.0324,0.013523,0.002678,0.000431,0.024328
129292000,0.0324,0.013523,0.002678,0.000431,0.025621
129293000,0.0324,0.013523,0.002678,0.000431,0.023388
129294000,0.0324,0.013523,0.002678,0.000431,0.021625
129295000,0.0324,0.013523,0.002678,0.000431,0.023036
129296000,0.0324,0.013523,0.002678,0.000431,0.019157
129297000,0.0324,0.013523,0.002678,0.000431,0.019980
129298000,0.0324,0.013523,0.002678,0.000431,0.018452
129299000,0.0324,0.013523,0.002678,0.000431,0.019745
129300000,0.0324,0.013523,0.002678,0.000431,0.018569
129301000,0.0324,0.013523,0.002678,0.000431,0.018922
129302000,0.0324,0.013523,0.002678,0.000431,0.018452
129303000,0.0324,0.013523,0.002678,0.000431,0.019627
129304000,0.0324,0.013523,0.002678,0.000431,0.020685
129305000,0.0324,0.013523,0.002678,0.000431,0.018922
129306000,0.0324,0.013523,0.002678,0.000431,0.016219
129307000,0.0324,0.013523,0.002678,0.000431,0.016336
129308000,0.0324,0.013523,0.002678,0.000431,0.016454
129309000,0.0324,0.013523,0.002678,0.000431,0.016689
129310000,0.0324,0.013523,0.002678,0.000431,0.018569
129311000,0.0324,0.013523,0.002678,0.000431,0.014456
129312000,0.0324,0.013523,0.002678,0.000431,0.014573
129313000,0.0324,0.013523,0.002678,0.000431,0.013046
129314000,0.0324,0.013523,0.002678,0.000431,0.014103
129315000,0.0324,0.013523,0.002678,0.000431,0.013516
129316000,0.0324,0.013523,0.002678,0.000431,0.014809
129317000,0.0324,0.013523,0.002678,0.000431,0.012458
129318000,0.0324,0.013523,0.002678,0.000431,0.013163
129319000,0.0324,0.013523,0.002678,0.000431,0.012811
129320000,0.0324,0.013523,0.002678,0.000431,0.012340
129321000,0.0324,0.013523,0.002678,0.000431,0.013398
129322000,0.0324,0.013523,0.002678,0.000431,0.012458
129323000,0.0324,0.013523,0.002678,0.000431,0.015866
129324000,0.0324,0.013523,0.002678,0.000431,0.010695
129325000,0.0324,0.013523,0.002678,0.000431,0.011400
129326000,0.0324,0.013523,0.002678,0.000431,0.010813
129327000,0.0324,0.013523,0.002678,0.000431,0.010695
129328000,0.0324,0.013523,0.002678,0.000431,0.012693
129329000,0.0324,0.013523,0.002678,0.000431,0.009872
129330000,0.0324,0.013523,0.002678,0.000431,0.010578
129331000,0.0324,0.013523,0.002678,0.000431,0.009755
129332000,0.0324,0.013523,0.002678,0.000431,0.010342
129333000,0.0324,0.013523,0.002678,0.000431,0.010107
129334000,0.0324,0.013523,0.002678,0.000431,0.009872
129335000,0.0324,0.013523,0.002678,0.000431,0.010578
129336000,0.0324,0.013523,0.002678,0.000431,0.009637
129337000,0.0324,0.013523,0.002678,0.000431,0.010695
129338000,0.0324,0.013523,0.002678,0.000431,0.009520
129339000,0.0324,0.013523,0.002678,0.000431,0.010578
129340000,0.0324,0.013523,0.002678,0.000431,0.009872
129341000,0.0324,0.013523,0.002678,0.000431,0.010107
129342000,0.0324,0.013523,0.002678,0.000431,0.009872
129343000,0.0324,0.013523,0.002678,0.000431,0.010578
129344000,0.0324,0.013523,0.002678,0.000431,0.010578
129345000,0.0324,0.013523,0.002678,0.000431,0.009637
129346000,0.0324,0.013523,0.002678,0.000431,0.010107
129347000,0.0324,0.013523,0.002678,0.000431,0.010342
129348000,0.0324,0.013523,0.002678,0.000431,0.010578
129349000,0.0324,0.013523,0.002678,0.000431,0.009755
129350000,0.0324,0.013523,0.002678,0.000431,0.010107
129351000,0.0324,0.013523,0.002678,0.000431,0.010225
129352000,0.0324,0.013523,0.002678,0.000431,0.010460
129353000,0.0324,0.013523,0.002678,0.000431,0.010342
129354000,0.0324,0.013523,0.002678,0.000431,0.009637
129355000,0.0324,0.013523,0.002678,0.000431,0.010460
129356000,0.0324,0.013523,0.002678,0.000431,0.009050
129357000,0.0324,0.013523,0.002678,0.000431,0.009402
129358000,0.0324,0.013523,0.002678,0.000431,0.010107
129359000,0.0324,0.013523,0.002678,0.000431,0.009050
129360000,0.0324,0.013523,0.002678,0.000431,0.009167
129361000,0.0324,0.013523,0.002678,0.000431,0.009167
129362000,0.0324,0.013523,0.002678,0.000431,0.009872
129363000,0.0324,0.013523,0.002678,0.000431,0.009755
129364000,0.0324,0.013523,0.002678,0.000431,0.010107
129365000,0.0324,0.013523,0.002678,0.000431,0.008462
129366000,0.0324,0.013523,0.002678,0.000431,0.008815
129367000,0.0324,0.013523,0.002678,0.000431,0.008580
129368000,0.0324,0.013523,0.002678,0.000431,0.008109
129369000,0.0324,0.013523,0.002678,0.000431,0.008932
129370000,0.0324,0.013523,0.002678,0.000431,0.008109
129371000,0.0324,0.013523,0.002678,0.000431,0.008815
129372000,0.0324,0.013523,0.002678,0.000431,0.008462
129373000,0.0324,0.013523,0.002678,0.000431,0.008462
129374000,0.0324,0.013523,0.002678,0.000431,0.008697
129375000,0.0324,0.013523,0.002678,0.000431,0.008227
129376000,0.0324,0.013523,0.002678,0.000431,0.008697
129377000,0.0324,0.013523,0.002678,0.000431,0.008109
129378000,0.0324,0.013523,0.002678,0.000431,0.009167
129379000,0.0324,0.013523,0.002678,0.000431,0.007874
129380000,0.0324,0.013523,0.002678,0.000431,0.008697
129381000,0.0324,0.013523,0.002678,0.000431,0.008580
129382000,0.0324,0.013523,0.002678,0.000431,0.008462
129383000,0.0324,0.013523,0.002678,0.000431,0.008815
129384000,0.0324,0.013523,0.002678,0.000431,0.007874
129385000,0.0324,0.013523,0.002678,0.000431,0.008932
129386000,0.0324,0.013523,0.002678,0.000431,0.008580
129387000,0.0324,0.013523,0.002678,0.000431,0.008345
129388000,0.0324,0.013523,0.002678,0.000431,0.008697
129389000,0.0324,0.013523,0.002678,0.000431,0.008345
129390000,0.0324,0.013523,0.002678,0.000431,0.008697
129391000,0.0324,0.013523,0.002678,0.000431,0.008345
129392000,0.0324,0.013523,0.002678,0.000431,0.008932
129393000,0.0324,0.013523,0.002678,0.000431,0.008580
129394000,0.0324,0.013523,0.002678,0.000431,0.008109
129395000,0.0324,0.013523,0.002678,0.000431,0.008462
129396000,0.0324,0.013523,0.002678,0.000431,0.008932
129397000,0.0324,0.013523,0.002678,0.000431,0.008227
129398000,0.0324,0.013523,0.002678,0.000431,0.008345
129399000,0.0324,0.013523,0.002678,0.000431,0.009050
129400000,0.0324,0.013523,0.002678,0.000431,0.008109
129401000,0.0324,0.013523,0.002678,0.000431,0.009050
129402000,0.0324,0.013523,0.002678,0.000431,0.008109
129403000,0.0324,0.013523,0.002678,0.000431,0.008697
129404000,0.0324,0.013523,0.002678,0.000431,0.008227
129405000,0.0324,0.013523,0.002678,0.000431,0.008580
129406000,0.0324,0.013523,0.002678,0.000431,0.009050
129407000,0.0324,0.013523,0.002678,0.000431,0.007874
129408000,0.0324,0.013523,0.002678,0.000431,0.008932
129409000,0.0324,0.013523,0.002678,0.000431,0.007992
129410000,0.0324,0.013523,0.002678,0.000431,0.008580
129411000,0.0324,0.013523,0.002678,0.000431,0.008697
129412000,0.0324,0.013523,0.002678,0.000431,0.008697
129413000,0.0324,0.013523,0.002678,0.000431,0.008462
129414000,0.0324,0.013523,0.002678,0.000431,0.007992
129415000,0.0324,0.013523,0.002678,0.000431,0.009167
129416000,0.0324,0.013523,0.002678,0.000431,0.008345
129417000,0.0324,0.013523,0.002678,0.000431,0.008580
129418000,0.0324,0.013523,0.002678,0.000431,0.008109
129419000,0.0324,0.013523,0.002678,0.000431,0.008815
129420000,0.0324,0.013523,0.002678,0.000431,0.007992
129421000,0.0324,0.013523,0.002678,0.000431,0.008462
129422000,0.0324,0.013523,0.002678,0.000431,0.009402
129423000,0.0324,0.013523,0.002678,0.000431,0.007757
129424000,0.0324,0.013523,0.002678,0.000431,0.008697
129425000,0.0324,0.013523,0.002678,0.000431,0.008462
129426000,0.0324,0.013523,0.002678,0.000431,0.008815
129427000,0.0324,0.013523,0.002678,0.000431,0.008580
129428000,0.0324,0.013523,0.002678,0.000431,0.008227
129429000,0.0324,0.013523,0.002678,0.000431,0.008697
129430000,0.0324,0.013523,0.002678,0.000431,0.008462
129431000,0.0324,0.013523,0.002678,0.000431,0.008815
129432000,0.0324,0.013523,0.002678,0.000431,0.007992
129433000,0.0324,0.013523,0.002678,0.000431,0.009167
129434000,0.0324,0.013523,0.002678,0.000431,0.008462
129435000,0.0324,0.013523,0.002678,0.000431,0.008345
129436000,0.0324,0.013523,0.002678,0.000431,0.008580
129437000,0.0324,0.013523,0.002678,0.000431,0.008462
129438000,0.0324,0.013523,0.002678,0.000431,0.009402
129439000,0.0324,0.013523,0.002678,0.000431,0.007757
129440000,0.0324,0.013523,0.002678,0.000431,0.008815
129441000,0.0324,0.013523,0.002678,0.000431,0.008345
129442000,0.0324,0.013523,0.002678,0.000431,0.008697
129443000,0.0324,0.013523,0.002678,0.000431,0.008345
129444000,0.0324,0.013523,0.002678,0.000431,0.008697
129445000,0.0324,0.013523,0.002678,0.000431,0.008580
129446000,0.0324,0.013523,0.002678,0.000431,0.008345
129447000,0.0324,0.013523,0.002678,0.000431,0.008697
129448000,0.0324,0.013523,0.002678,0.000431,0.008462
129449000,0.0324,0.013523,0.002678,0.000431,0.008815
129450000,0.0324,0.013523,0.002678,0.000431,0.008227
129451000,0.0324,0.013523,0.002678,0.000431,0.008580
129452000,0.0324,0.013523,0.002678,0.000431,0.008227
129453000,0.0324,0.013523,0.002678,0.000431,0.008697
129454000,0.0324,0.013523,0.002678,0.000431,0.009755
129455000,0.0324,0.013523,0.002678,0.000431,0.007992
129456000,0.0324,0.013523,0.002678,0.000431,0.006347
129457000,0.0324,0.013523,0.002678,0.000431,0.005876
129458000,0.0324,0.013523,0.002678,0.000431,0.005759
129459000,0.0324,0.013523,0.002678,0.000431,0.005876
129460000,0.0324,0.013523,0.002678,0.000431,0.006229
129461000,0.0324,0.013523,0.002678,0.000431,0.005876
129462000,0.0324,0.013523,0.002678,0.000431,0.005641
129463000,0.0324,0.013523,0.002678,0.000431,0.006111
129464000,0.0324,0.013523,0.002678,0.000431,0.005759
129465000,0.0324,0.013523,0.002678,0.000431,0.006582
129466000,0.0324,0.013523,0.002678,0.000431,0.005289
129467000,0.0324,0.013523,0.002678,0.000431,0.006111
129468000,0.0324,0.013523,0.002678,0.000431,0.005641
129469000,0.0324,0.013523,0.002678,0.000431,0.006111
129470000,0.0324,0.013523,0.002678,0.000431,0.006229
129471000,0.0324,0.013523,0.002678,0.000431,0.005524
129472000,0.0324,0.013523,0.002678,0.000431,0.006111
129473000,0.0324,0.013523,0.002678,0.000431,0.005641
129474000,0.0324,0.013523,0.002678,0.000431,0.006229
129475000,0.0324,0.013523,0.002678,0.000431,0.006111
129476000,0.0324,0.013523,0.002678,0.000431,0.005524
129477000,0.0324,0.013523,0.002678,0.000431,0.006229
129478000,0.0324,0.013523,0.002678,0.000431,0.005641
129479000,0.0324,0.013523,0.002678,0.000431,0.006347
129480000,0.0324,0.013523,0.002678,0.000431,0.005876
129481000,0.0324,0.013523,0.002678,0.000431,0.005759
129482000,0.0324,0.013523,0.002678,0.000431,0.005994
129483000,0.0324,0.013523,0.002678,0.000431,0.005994
129484000,0.0324,0.013523,0.002678,0.000431,0.005641
129485000,0.0324,0.013523,0.002678,0.000431,0.005994
129486000,0.0324,0.013523,0.002678,0.000431,0.006111
129487000,0.0324,0.013523,0.002678,0.000431,0.005876
129488000,0.0324,0.013523,0.002678,0.000431,0.005759
129489000,0.0324,0.013523,0.002678,0.000431,0.005759
129490000,0.0324,0.013523,0.002678,0.000431,0.006347
129491000,0.0324,0.013523,0.002678,0.000431,0.005641
129492000,0.0324,0.013523,0.002678,0.000431,0.006111
129493000,0.0324,0.013523,0.002678,0.000431,0.005524
129494000,0.0324,0.013523,0.002678,0.000431,0.006229
129495000,0.0324,0.013523,0.002678,0.000431,0.006229
129496000,0.0324,0.013523,0.002678,0.000431,0.005289
129497000,0.0324,0.013523,0.002678,0.000431,0.006464
129498000,0.0324,0.013523,0.002678,0.000431,0.005759
129499000,0.0324,0.013523,0.002678,0.000431,0.005994
129500000,0.0324,0.013523,0.002678,0.000431,0.005759
129501000,0.0324,0.013523,0.002678,0.000431,0.005994
129502000,0.0324,0.013523,0.002678,0.000431,0.006464
129503000,0.0324,0.013523,0.002678,0.000431,0.005289
129504000,0.0324,0.013523,0.002678,0.000431,0.006347
129505000,0.0324,0.013523,0.002678,0.000431,0.006111
129506000,0.0324,0.013523,0.002678,0.000431,0.005994
129507000,0.0324,0.013523,0.002678,0.000431,0.005406
129508000,0.0324,0.013523,0.002678,0.000431,0.006229
129509000,0.0324,0.013523,0.002678,0.000431,0.005876
129510000,0.0324,0.013523,0.002678,0.000431,0.005759
129511000,0.0324,0.013523,0.002678,0.000431,0.006111
129512000,0.0324,0.013523,0.002678,0.000431,0.006111
129513000,0.0324,0.013523,0.002678,0.000431,0.006111
129514000,0.0324,0.013523,0.002678,0.000431,0.005524
129515000,0.0324,0.013523,0.002678,0.000431,0.005876
129516000,0.0324,0.013523,0.002678,0.000431,0.005994
129517000,0.0324,0.013523,0.002678,0.000431,0.005759
129518000,0.0324,0.013523,0.002678,0.000431,0.006229
129519000,0.0324,0.013523,0.002678,0.000431,0.005524
129520000,0.0324,0.013523,0.002678,0.000431,0.006464
129521000,0.0324,0.013523,0.002678,0.000431,0.005641
129522000,0.0324,0.013523,0.002678,0.000431,0.005759
129523000,0.0324,0.013523,0.002678,0.000431,0.006229
129524000,0.0324,0.013523,0.002678,0.000431,0.005876
129525000,0.0324,0.013523,0.002678,0.000431,0.006111
129526000,0.0324,0.013523,0.002678,0.000431,0.005406
129527000,0.0324,0.013523,0.002678,0.000431,0.006347
129528000,0.0324,0.013523,0.002678,0.000431,0.006229
129529000,0.0324,0.013523,0.002678,0.000431,0.005641
129530000,0.0324,0.013523,0.002678,0.000431,0.005759
129531000,0.0324,0.013523,0.002678,0.000431,0.006111
129532000,0.0324,0.013523,0.002678,0.000431,0.005994
129533000,0.0324,0.013523,0.002678,0.000431,0.005759
129534000,0.0324,0.013523,0.002678,0.000431,0.005994
129535000,0.0324,0.013523,0.002678,0.000431,0.006229
129536000,0.0324,0.013523,0.002678,0.000431,0.005641
129537000,0.0324,0.013523,0.002678,0.000431,0.005759
129538000,0.0324,0.013523,0.002678,0.000431,0.006111
129539000,0.0324,0.013523,0.002678,0.000431,0.005876
129540000,0.0324,0.013523,0.002678,0.000431,0.005876
129541000,0.0324,0.013523,0.002678,0.000431,0.005994
129542000,0.0324,0.013523,0.002678,0.000431,0.005994
129543000,0.0324,0.013523,0.002678,0.000431,0.006229
129544000,0.0324,0.013523,0.002678,0.000431,0.005524
129545000,0.0324,0.013523,0.002678,0.000431,0.006111
129546000,0.0324,0.013523,0.002678,0.000431,0.005759
129547000,0.0324,0.013523,0.002678,0.000431,0.006111
129548000,0.0324,0.013523,0.002678,0.000431,0.006111
129549000,0.0324,0.013523,0.002678,0.000431,0.005524
129550000,0.0324,0.013523,0.002678,0.000431,0.006464
129551000,0.0324,0.013523,0.002678,0.000431,0.005289
129552000,0.0324,0.013523,0.002678,0.000431,0.006347
129553000,0.0324,0.013523,0.002678,0.000431,0.005759
129554000,0.0324,0.013523,0.002678,0.000431,0.005876
129555000,0.0324,0.013523,0.002678,0.000431,0.006111
129556000,0.0324,0.013523,0.002678,0.000431,0.005524
129557000,0.0324,0.013523,0.002678,0.000431,0.006347
129558000,0.0324,0.013523,0.002678,0.000431,0.005876
129559000,0.0324,0.013523,0.002678,0.000431,0.005759
129560000,0.0324,0.013523,0.002678,0.000431,0.005876
129561000,0.0324,0.013523,0.002678,0.000431,0.006111
129562000,0.0324,0.013523,0.002678,0.000431,0.005759
129563000,0.0324,0.013523,0.002678,0.000431,0.005641
129564000,0.0324,0.013523,0.002678,0.000431,0.006347
129565000,0.0324,0.013523,0.002678,0.000431,0.005406
129566000,0.0324,0.013523,0.002678,0.000431,0.006464
129567000,0.0324,0.013523,0.002678,0.000431,0.005524
129568000,0.0324,0.013523,0.002678,0.000431,0.006111
129569000,0.0324,0.013523,0.002678,0.000431,0.005406
129570000,0.0324,0.013523,0.002678,0.000431,0.005994
129571000,0.0324,0.013523,0.002678,0.000431,0.006464
129572000,0.0324,0.013523,0.002678,0.000431,0.005406
129573000,0.0324,0.013523,0.002678,0.000431,0.006229
129574000,0.0324,0.013523,0.002678,0.000431,0.005289
129575000,0.0324,0.013523,0.002678,0.000431,0.006347
129576000,0.0324,0.013523,0.002678,0.000431,0.006111
129577000,0.0324,0.013523,0.002678,0.000431,0.005406
129578000,0.0324,0.013523,0.002678,0.000431,0.006347
129579000,0.0324,0.013523,0.002678,0.000431,0.005524
129580000,0.0324,0.013523,0.002678,0.000431,0.006229
129581000,0.0324,0.013523,0.002678,0.000431,0.005994
129582000,0.0324,0.013523,0.002678,0.000431,0.005524
129583000,0.0324,0.013523,0.002678,0.000431,0.006111
129584000,0.0324,0.013523,0.002678,0.000431,0.005759
129585000,0.0324,0.013523,0.002678,0.000431,0.006111
129586000,0.0324,0.013523,0.002678,0.000431,0.005524
129587000,0.0324,0.013523,0.002678,0.000431,0.006229
129588000,0.0324,0.013523,0.002678,0.000431,0.005994
129589000,0.0324,0.013523,0.002678,0.000431,0.005641
129590000,0.0324,0.013523,0.002678,0.000431,0.005876
129591000,0.0324,0.013523,0.002678,0.000431,0.006111
129592000,0.0324,0.013523,0.002678,0.000431,0.005876
129593000,0.0324,0.013523,0.002678,0.000431,0.005524
129594000,0.0324,0.013523,0.002678,0.000431,0.005994
129595000,0.0324,0.013523,0.002678,0.000431,0.006347
129596000,0.0324,0.013523,0.002678,0.000431,0.005641
129597000,0.0324,0.013523,0.002678,0.000431,0.005641
129598000,0.0324,0.013523,0.002678,0.000431,0.006111
129599000,0.0324,0.013523,0.002678,0.000431,0.005406
129600000,0.0324,0.013523,0.002678,0.000431,0.006111
129601000,0.0324,0.013523,0.002678,0.000431,0.006347
129602000,0.0324,0.013523,0.002678,0.000431,0.005289
129603000,0.0324,0.013523,0.002678,0.000431,0.006464
129604000,0.0324,0.013523,0.002678,0.000431,0.005171
129605000,0.0324,0.013523,0.002678,0.000431,0.006347
129606000,0.0324,0.013523,0.002678,0.000431,0.006464
129607000,0.0324,0.013523,0.002678,0.000431,0.005289
129608000,0.0324,0.013523,0.002678,0.000431,0.006347
129609000,0.0324,0.013523,0.002678,0.000431,0.005406
129610000,0.0324,0.013523,0.002678,0.000431,0.006229
129611000,0.0324,0.013523,0.002678,0.000431,0.005876
129612000,0.0324,0.013523,0.002678,0.000431,0.005759
129613000,0.0324,0.013523,0.002678,0.000431,0.005994
129614000,0.0324,0.013523,0.002678,0.000431,0.005876
129615000,0.0324,0.013523,0.002678,0.000431,0.006111
129616000,0.0324,0.013523,0.002678,0.000431,0.005406
129617000,0.0324,0.013523,0.002678,0.000431,0.006229
129618000,0.0324,0.013523,0.002678,0.000431,0.005994
129619000,0.0324,0.013523,0.002678,0.000431,0.005641
129620000,0.0324,0.013523,0.002678,0.000431,0.005876
129621000,0.0324,0.013523,0.002678,0.000431,0.005876
129622000,0.0324,0.013523,0.002678,0.000431,0.006111
129623000,0.0324,0.013523,0.002678,0.000431,0.005524
129624000,0.0324,0.013523,0.002678,0.000431,0.006347
129625000,0.0324,0.013523,0.002678,0.000431,0.005759
129626000,0.0324,0.013523,0.002678,0.000431,0.005876
129627000,0.0324,0.013523,0.002678,0.000431,0.005406
129628000,0.0324,0.013523,0.002678,0.000431,0.006229
129629000,0.0324,0.013523,0.002678,0.000431,0.006464
129630000,0.0324,0.013523,0.002678,0.000431,0.005171
129631000,0.0324,0.013523,0.002678,0.000431,0.006347
129632000,0.0324,0.013523,0.002678,0.000431,0.005406
129633000,0.0324,0.013523,0.002678,0.000431,0.006111
129634000,0.0324,0.013523,0.002678,0.000431,0.005994
129635000,0.0324,0.013523,0.002678,0.000431,0.005759
129636000,0.0324,0.013523,0.002678,0.000431,0.006464
129637000,0.0324,0.013523,0.002678,0.000431,0.005171
129638000,0.0324,0.013523,0.002678,0.000431,0.006229
129639000,0.0324,0.013523,0.002678,0.000431,0.005994
129640000,0.0324,0.013523,0.002678,0.000431,0.005759
129641000,0.0324,0.013523,0.002678,0.000431,0.005994
129642000,0.0324,0.013523,0.002678,0.000431,0.005524
129643000,0.0324,0.013523,0.002678,0.000431,0.006464
129644000,0.0324,0.013523,0.002678,0.000431,0.005289
129645000,0.0324,0.013523,0.002678,0.000431,0.006111
129646000,0.0324,0.013523,0.002678,0.000431,0.005876
129647000,0.0324,0.013523,0.002678,0.000431,0.005876
129648000,0.0324,0.013523,0.002678,0.000431,0.005641
129649000,0.0324,0.013523,0.002678,0.000431,0.005876
129650000,0.0324,0.013523,0.002678,0.000431,0.006229
129651000,0.0324,0.013523,0.002678,0.000431,0.005524
129652000,0.0324,0.013523,0.002678,0.000431,0.005641
129653000,0.0324,0.013523,0.002678,0.000431,0.006347
129654000,0.0324,0.013523,0.002678,0.000431,0.005994
129655000,0.0324,0.013523,0.002678,0.000431,0.005641
129656000,0.0324,0.013523,0.002678,0.000431,0.005759
129657000,0.0324,0.013523,0.002678,0.000431,0.005759
129658000,0.0324,0.013523,0.002678,0.000431,0.005994
129659000,0.0324,0.013523,0.002678,0.000431,0.006464
129660000,0.0324,0.013523,0.002678,0.000431,0.005406
129661000,0.0324,0.013523,0.002678,0.000431,0.006111
129662000,0.0324,0.013523,0.002678,0.000431,0.005406
129663000,0.0324,0.013523,0.002678,0.000431,0.006229
129664000,0.0324,0.013523,0.002678,0.000431,0.006229
129665000,0.0324,0.013523,0.002678,0.000431,0.005406
129666000,0.0324,0.013523,0.002678,0.000431,0.006229
129667000,0.0324,0.013523,0.002678,0.000431,0.005406
129668000,0.0324,0.013523,0.002678,0.000431,0.006229
129669000,0.0324,0.013523,0.002678,0.000431,0.006111
129670000,0.0324,0.013523,0.002678,0.000431,0.005524
129671000,0.0324,0.013523,0.002678,0.000431,0.006347
129672000,0.0324,0.013523,0.002678,0.000431,0.005524
129673000,0.0324,0.013523,0.002678,0.000431,0.006229
129674000,0.0324,0.013523,0.002678,0.000431,0.005759
129675000,0.0324,0.013523,0.002678,0.000431,0.005759
129676000,0.0324,0.013523,0.002678,0.000431,0.005994
129677000,0.0324,0.013523,0.002678,0.000431,0.005994
129678000,0.0324,0.013523,0.002678,0.000431,0.006111
129679000,0.0324,0.013523,0.002678,0.000431,0.005289
129680000,0.0324,0.013523,0.002678,0.000431,0.006229
129681000,0.0324,0.013523,0.002678,0.000431,0.005994
129682000,0.0324,0.013523,0.002678,0.000431,0.005994
129683000,0.0324,0.013523,0.002678,0.000431,0.005524
129684000,0.0324,0.013523,0.002678,0.000431,0.005994
129685000,0.0324,0.013523,0.002678,0.000431,0.005876
129686000,0.0324,0.013523,0.002678,0.000431,0.005641
129687000,0.0324,0.013523,0.002678,0.000431,0.006464
129688000,0.0324,0.013523,0.002678,0.000431,0.005876
129689000,0.0324,0.013523,0.002678,0.000431,0.005759
129690000,0.0324,0.013523,0.002678,0.000431,0.005289
129691000,0.0324,0.013523,0.002678,0.000431,0.006347
129692000,0.0324,0.013523,0.002678,0.000431,0.006464
129693000,0.0324,0.013523,0.002678,0.000431,0.004936
129694000,0.0324,0.013523,0.002678,0.000431,0.006582
129695000,0.0324,0.013523,0.002678,0.000431,0.005406
129696000,0.0324,0.013523,0.002678,0.000431,0.006229
129697000,0.0324,0.013523,0.002678,0.000431,0.005759
129698000,0.0324,0.013523,0.002678,0.000431,0.005759
129699000,0.0324,0.013523,0.002678,0.000431,0.006464
129700000,0.0324,0.013523,0.002678,0.000431,0.005406
129701000,0.0324,0.013523,0.002678,0.000431,0.006111
129702000,0.0324,0.013523,0.002678,0.000431,0.005994
129703000,0.0324,0.013523,0.002678,0.000431,0.005641
129704000,0.0324,0.013523,0.002678,0.000431,0.005994
129705000,0.0324,0.013523,0.002678,0.000431,0.005759
129706000,0.0324,0.013523,0.002678,0.000431,0.006347
129707000,0.0324,0.013523,0.002678,0.000431,0.005524
129708000,0.0324,0.013523,0.002678,0.000431,0.005876
129709000,0.0324,0.013523,0.002678,0.000431,0.006111
129710000,0.0324,0.013523,0.002678,0.000431,0.005876
129711000,0.0324,0.013523,0.002678,0.000431,0.006347
129712000,0.0324,0.013523,0.002678,0.000431,0.005641
129713000,0.0324,0.013523,0.002678,0.000431,0.006229
129714000,0.0324,0.013523,0.002678,0.000431,0.005994
129715000,0.0324,0.013523,0.002678,0.000431,0.006229
129716000,0.0324,0.013523,0.002678,0.000431,0.009167
129717000,0.0324,0.013523,0.002678,0.000431,0.006817
129718000,0.0324,0.013523,0.002678,0.000431,0.002703
129719000,0.0324,0.013523,0.002678,0.000431,0.002586
129720000,0.0324,0.013523,0.002678,0.000431,0.002468
129721000,0.0324,0.013523,0.002678,0.000431,0.002821
129722000,0.0324,0.013523,0.002678,0.000431,0.002586
129723000,0.0324,0.013523,0.002678,0.000431,0.002703
129724000,0.0324,0.013523,0.002678,0.000431,0.002468
129725000,0.0324,0.013523,0.002678,0.000431,0.002821
129726000,0.0324,0.013523,0.002678,0.000431,0.002468
129727000,0.0324,0.013523,0.002678,0.000431,0.002586
129728000,0.0324,0.013523,0.002678,0.000431,0.002703
129729000,0.0324,0.013523,0.002678,0.000431,0.002586
129730000,0.0324,0.013523,0.002678,0.000431,0.002703
129731000,0.0324,0.013523,0.002678,0.000431,0.002351
129732000,0.0324,0.013523,0.002678,0.000431,0.002703
129733000,0.0324,0.013523,0.002678,0.000431,0.002703
129734000,0.0324,0.013523,0.002678,0.000431,0.002468
129735000,0.0324,0.013523,0.002678,0.000431,0.002703
129736000,0.0324,0.013523,0.002678,0.000431,0.002468
129737000,0.0324,0.013523,0.002678,0.000431,0.002703
129738000,0.0324,0.013523,0.002678,0.000431,0.002703
129739000,0.0324,0.013523,0.002678,0.000431,0.002351
129740000,0.0324,0.013523,0.002678,0.000431,0.002703
129741000,0.0324,0.013523,0.002678,0.000431,0.002586
129742000,0.0324,0.013523,0.002678,0.000431,0.002586
129743000,0.0324,0.013523,0.002678,0.000431,0.002468
129744000,0.0324,0.013523,0.002678,0.000431,0.002821
129745000,0.0324,0.013523,0.002678,0.000431,0.002586
129746000,0.0324,0.013523,0.002678,0.000431,0.003761
129747000,0.0324,0.013523,0.002678,0.000431,0.001763
129748000,0.0324,0.013523,0.002678,0.000431,0.001880
129749000,0.0324,0.013523,0.002678,0.000431,0.001645
129750000,0.0324,0.013523,0.002678,0.000431,0.001880
129751000,0.0324,0.013523,0.002678,0.000431,0.001645
129752000,0.0324,0.013523,0.002678,0.000431,0.001880
129753000,0.0324,0.013523,0.002678,0.000431,0.001645
129754000,0.0324,0.013523,0.002678,0.000431,0.001645
129755000,0.0324,0.013523,0.002678,0.000431,0.001880
129756000,0.0324,0.013523,0.002678,0.000431,0.001880
129757000,0.0324,0.013523,0.002678,0.000431,0.001645
129758000,0.0324,0.013523,0.002678,0.000431,0.001645
129759000,0.0324,0.013523,0.002678,0.000431,0.001880
129760000,0.0324,0.013523,0.002678,0.000431,0.001880
129761000,0.0324,0.013523,0.002678,0.000431,0.001645
129762000,0.0324,0.013523,0.002678,0.000431,0.001645
129763000,0.0324,0.013523,0.002678,0.000431,0.001880
129764000,0.0324,0.013523,0.002678,0.000431,0.001880
129765000,0.0324,0.013523,0.002678,0.000431,0.001645
129766000,0.0324,0.013523,0.002678,0.000431,0.001645
129767000,0.0324,0.013523,0.002678,0.000431,0.001880
129768000,0.0324,0.013523,0.002678,0.000431,0.003291
129769000,0.0324,0.013523,0.002678,0.000431,0.000940
129770000,0.0324,0.013523,0.002678,0.000431,0.000823
129771000,0.0324,0.013523,0.002678,0.000431,0.000940
129772000,0.0324,0.013523,0.002678,0.000431,0.000823
129773000,0.0324,0.013523,0.002678,0.000431,0.000823
129774000,0.0324,0.013523,0.002678,0.000431,0.000940
129775000,0.0324,0.013523,0.002678,0.000431,0.000940
129776000,0.0324,0.013523,0.002678,0.000431,0.000823
129777000,0.0324,0.013523,0.002678,0.000431,0.000823
129778000,0.0324,0.013523,0.002678,0.000431,0.000940
129779000,0.0324,0.013523,0.002678,0.000431,0.000940
129780000,0.0324,0.013523,0.002678,0.000431,0.000705
129781000,0.0324,0.013523,0.002678,0.000431,0.000940
129782000,0.0324,0.013523,0.002678,0.000431,0.000940
129783000,0.0324,0.013523,0.002678,0.000431,0.000940
129784000,0.0324,0.013523,0.002678,0.000431,0.000705
129785000,0.0324,0.013523,0.002678,0.000431,0.000940
129786000,0.0324,0.013523,0.002678,0.000431,0.000940
129787000,0.0324,0.013523,0.002678,0.000431,0.000823
129788000,0.0324,0.013523,0.002678,0.000431,0.000940
129789000,0.0324,0.013523,0.002678,0.000431,0.000823
129790000,0.0324,0.013523,0.002678,0.000431,0.000940
129791000,0.0324,0.013523,0.002678,0.000431,0.000823
129792000,0.0324,0.013523,0.002678,0.000431,0.000823
129793000,0.0324,0.013523,0.002678,0.000431,0.000940
129794000,0.0324,0.013523,0.002678,0.000431,0.000823
129795000,0.0324,0.013523,0.002678,0.000431,0.000823
129796000,0.0324,0.013523,0.002678,0.000431,0.000940
129797000,0.0324,0.013523,0.002678,0.000431,0.000940
129798000,0.0324,0.013523,0.002678,0.000431,0.000940
129799000,0.0324,0.013523,0.002678,0.000431,0.000705
129800000,0.0324,0.013523,0.002678,0.000431,0.000940
129801000,0.0324,0.013523,0.002678,0.000431,0.000940
129802000,0.0324,0.013523,0.002678,0.000431,0.000823
129803000,0.0324,0.013523,0.002678,0.000431,0.000823
129804000,0.0324,0.013523,0.002678,0.000431,0.000940
129805000,0.0324,0.013523,0.002678,0.000431,0.000940
129806000,0.0324,0.013523,0.002678,0.000431,0.000823
129807000,0.0324,0.013523,0.002678,0.000431,0.000823
129808000,0.0324,0.013523,0.002678,0.000431,0.000940
129809000,0.0324,0.013523,0.002678,0.000431,0.000823
129810000,0.0324,0.013523,0.002678,0.000431,0.000940
129811000,0.0324,0.013523,0.002678,0.000431,0.000823
129812000,0.0324,0.013523,0.002678,0.000431,0.000940
129813000,0.0324,0.013523,0.002678,0.000431,0.000823
129814000,0.0324,0.013523,0.002678,0.000431,0.000823
129815000,0.0324,0.013523,0.002678,0.000431,0.000940
129816000,0.0324,0.013523,0.002678,0.000431,0.000940
129817000,0.0324,0.013523,0.002678,0.000431,0.000823
129818000,0.0324,0.013523,0.002678,0.000431,0.000823
129819000,0.0324,0.013523,0.002678,0.000431,0.000940
129820000,0.0324,0.013523,0.002678,0.000431,0.000940
129821000,0.0324,0.013523,0.002678,0.000431,0.000823
129822000,0.0324,0.013523,0.002678,0.000431,0.000823
129823000,0.0324,0.013523,0.002678,0.000431,0.000940
129824000,0.0324,0.013523,0.002678,0.000431,0.000940
129825000,0.0324,0.013523,0.002678,0.000431,0.000823
129826000,0.0324,0.013523,0.002678,0.000431,0.000823
129827000,0.0324,0.013523,0.002678,0.000431,0.000940
129828000,0.0324,0.013523,0.002678,0.000431,0.000823
129829000,0.0324,0.013523,0.002678,0.000431,0.000940
129830000,0.0324,0.013523,0.002678,0.000431,0.000823
129831000,0.0324,0.013523,0.002678,0.000431,0.000940
129832000,0.0324,0.013523,0.002678,0.000431,0.000823
129833000,0.0324,0.013523,0.002678,0.000431,0.000823
129834000,0.0324,0.013523,0.002678,0.000431,0.000940
129835000,0.0324,0.013523,0.002678,0.000431,0.000940
129836000,0.0324,0.013523,0.002678,0.000431,0.000705
129837000,0.0324,0.013523,0.002678,0.000431,0.000940
129838000,0.0324,0.013523,0.002678,0.000431,0.000940
129839000,0.0324,0.013523,0.002678,0.000431,0.000940
129840000,0.0324,0.013523,0.002678,0.000431,0.000705
129841000,0.0324,0.013523,0.002678,0.000431,0.000940
129842000,0.0324,0.013523,0.002678,0.000431,0.000940
129843000,0.0324,0.013523,0.002678,0.000431,0.000823
129844000,0.0324,0.013523,0.002678,0.000431,0.000823
129845000,0.0324,0.013523,0.002678,0.000431,0.000940
129846000,0.0324,0.013523,0.002678,0.000431,0.000940
129847000,0.0324,0.013523,0.002678,0.000431,0.000823
129848000,0.0324,0.013523,0.002678,0.000431,0.000823
129849000,0.0324,0.013523,0.002678,0.000431,0.000940
129850000,0.0324,0.013523,0.002678,0.000431,0.000823
129851000,0.0324,0.013523,0.002678,0.000431,0.000940
129852000,0.0324,0.013523,0.002678,0.000431,0.000823
129853000,0.0324,0.013523,0.002678,0.000431,0.000940
129854000,0.0324,0.013523,0.002678,0.000431,0.000823
129855000,0.0324,0.013523,0.002678,0.000431,0.000823
129856000,0.0324,0.013523,0.002678,0.000431,0.000940
129857000,0.0324,0.013523,0.002678,0.000431,0.000940
129858000,0.0324,0.013523,0.002678,0.000431,0.000940
129859000,0.0324,0.013523,0.002678,0.000431,0.000705
129860000,0.0324,0.013523,0.002678,0.000431,0.000940
129861000,0.0324,0.013523,0.002678,0.000431,0.000940
129862000,0.0324,0.013523,0.002678,0.000431,0.000823
129863000,0.0324,0.013523,0.002678,0.000431,0.000823
129864000,0.0324,0.013523,0.002678,0.000431,0.000940
129865000,0.0324,0.013523,0.002678,0.000431,0.000940
129866000,0.0324,0.013523,0.002678,0.000431,0.000823
129867000,0.0324,0.013523,0.002678,0.000431,0.000823
129868000,0.0324,0.013523,0.002678,0.000431,0.000940
129869000,0.0324,0.013523,0.002678,0.000431,0.000823
129870000,0.0324,0.013523,0.002678,0.000431,0.000940
129871000,0.0324,0.013523,0.002678,0.000431,0.000823
129872000,0.0324,0.013523,0.002678,0.000431,0.000940
129873000,0.0324,0.013523,0.002678,0.000431,0.000823
129874000,0.0324,0.013523,0.002678,0.000431,0.000823
129875000,0.0324,0.013523,0.002678,0.000431,0.000940
129876000,0.0324,0.013523,0.002678,0.000431,0.000940
129877000,0.0324,0.013523,0.002678,0.000431,0.000823
129878000,0.0324,0.013523,0.002678,0.000431,0.000823
129879000,0.0324,0.013523,0.002678,0.000431,0.000940
129880000,0.0324,0.013523,0.002678,0.000431,0.000940
129881000,0.0324,0.013523,0.002678,0.000431,0.000823
129882000,0.0324,0.013523,0.002678,0.000431,0.000823
129883000,0.0324,0.013523,0.002678,0.000431,0.000940
129884000,0.0324,0.013523,0.002678,0.000431,0.000823
129885000,0.0324,0.013523,0.002678,0.000431,0.000940
129886000,0.0324,0.013523,0.002678,0.000431,0.000823
129887000,0.0324,0.013523,0.002678,0.000431,0.000940
129888000,0.0324,0.013523,0.002678,0.000431,0.000823
129889000,0.0324,0.013523,0.002678,0.000431,0.000823
129890000,0.0324,0.013523,0.002678,0.000431,0.000940
129891000,0.0324,0.013523,0.002678,0.000431,0.000940
129892000,0.0324,0.013523,0.002678,0.000431,0.000823
129893000,0.0324,0.013523,0.002678,0.000431,0.000823
129894000,0.0324,0.013523,0.002678,0.000431,0.000940
129895000,0.0324,0.013523,0.002678,0.000431,0.000940
129896000,0.0324,0.013523,0.002678,0.000431,0.000705
129897000,0.0324,0.013523,0.002678,0.000431,0.000940
129898000,0.0324,0.013523,0.002678,0.000431,0.000940
129899000,0.0324,0.013523,0.002678,0.000431,0.000940
129900000,0.0324,0.013523,0.002678,0.000431,0.000705
129901000,0.0324,0.013523,0.002678,0.000431,0.000940
129902000,0.0324,0.013523,0.002678,0.000431,0.000940
129903000,0.0324,0.013523,0.002678,0.000431,0.000823
129904000,0.0324,0.013523,0.002678,0.000431,0.000823
129905000,0.0324,0.013523,0.002678,0.000431,0.000940
129906000,0.0324,0.013523,0.002678,0.000431,0.000940
129907000,0.0324,0.013523,0.002678,0.000431,0.000823
129908000,0.0324,0.013523,0.002678,0.000431,0.000823
129909000,0.0324,0.013523,0.002678,0.000431,0.000940
129910000,0.0324,0.013523,0.002678,0.000431,0.059352
129911000,0.0324,0.013523,0.002678,0.000431,0.393367
129912000,0.0324,0.013523,0.002678,0.000431,0.608208
129913000,0.0324,0.013523,0.002678,0.000431,0.130691
129914000,0.0324,0.013523,0.002678,0.000431,0.133982
129915000,0.0324,0.013523,0.002678,0.000431,0.420986
129916000,0.0324,0.013523,0.002678,0.000431,0.361164
129917000,0.0324,0.013523,0.002678,0.000431,0.218837
129918000,0.0324,0.013523,0.002678,0.000431,0.319794
129919000,0.0324,0.013523,0.002678,0.000431,0.198505
129920000,0.0324,0.013523,0.002678,0.000431,0.142092
129921000,0.0324,0.013523,0.002678,0.000431,0.159838
129922000,0.0324,0.013523,0.002678,0.000431,0.122817
129923000,0.0324,0.013523,0.002678,0.000431,0.453306
129924000,0.0324,0.013523,0.002678,0.000431,0.041487
129925000,0.0324,0.013523,0.002678,0.000431,0.021273
129926000,0.0324,0.013523,0.002678,0.000431,0.023388
129927000,0.0324,0.013523,0.002678,0.000431,0.019980
129928000,0.0324,0.013523,0.002678,0.000431,0.014103
129929000,0.0324,0.013523,0.002678,0.000431,0.014456
129930000,0.0324,0.013523,0.002678,0.000431,0.009285
129931000,0.0324,0.013523,0.002678,0.000431,0.009637
129932000,0.0324,0.013523,0.002678,0.000431,0.009285
129933000,0.0324,0.013523,0.002678,0.000431,0.011518
129934000,0.0324,0.013523,0.002678,0.000431,0.007287
129935000,0.0324,0.013523,0.002678,0.000431,0.008227
129936000,0.0324,0.013523,0.002678,0.000431,0.007404
129937000,0.0324,0.013523,0.002678,0.000431,0.007874
129938000,0.0324,0.013523,0.002678,0.000431,0.007404
129939000,0.0324,0.013523,0.002678,0.000431,0.007874
129940000,0.0324,0.013523,0.002678,0.000431,0.007639
129941000,0.0324,0.013523,0.002678,0.000431,0.007287
129942000,0.0324,0.013523,0.002678,0.000431,0.007992
129943000,0.0324,0.013523,0.002678,0.000431,0.007639
129944000,0.0324,0.013523,0.002678,0.000431,0.008227
129945000,0.0324,0.013523,0.002678,0.000431,0.008227
129946000,0.0324,0.013523,0.002678,0.000431,0.008227
129947000,0.0324,0.013523,0.002678,0.000431,0.008815
129948000,0.0324,0.013523,0.002678,0.000431,0.007404
129949000,0.0324,0.013523,0.002678,0.000431,0.006464
129950000,0.0324,0.013523,0.002678,0.000431,0.007287
129951000,0.0324,0.013523,0.002678,0.000431,0.007522
129952000,0.0324,0.013523,0.002678,0.000431,0.007404
129953000,0.0324,0.013523,0.002678,0.000431,0.006934
129954000,0.0324,0.013523,0.002678,0.000431,0.007522
129955000,0.0324,0.013523,0.002678,0.000431,0.007287
129956000,0.0324,0.013523,0.002678,0.000431,0.006934
129957000,0.0324,0.013523,0.002678,0.000431,0.007169
129958000,0.0324,0.013523,0.002678,0.000431,0.007874
129959000,0.0324,0.013523,0.002678,0.000431,0.007052
129960000,0.0324,0.013523,0.002678,0.000431,0.006934
129961000,0.0324,0.013523,0.002678,0.000431,0.006934
129962000,0.0324,0.013523,0.002678,0.000431,0.006934
129963000,0.0324,0.013523,0.002678,0.000431,0.007522
129964000,0.0324,0.013523,0.002678,0.000431,0.007169
129965000,0.0324,0.013523,0.002678,0.000431,0.006817
129966000,0.0324,0.013523,0.002678,0.000431,0.007052
129967000,0.0324,0.013523,0.002678,0.000431,0.007169
129968000,0.0324,0.013523,0.002678,0.000431,0.006464
129969000,0.0324,0.013523,0.002678,0.000431,0.005759
129970000,0.0324,0.013523,0.002678,0.000431,0.005524
129971000,0.0324,0.013523,0.002678,0.000431,0.005994
129972000,0.0324,0.013523,0.002678,0.000431,0.006111
129973000,0.0324,0.013523,0.002678,0.000431,0.005406
129974000,0.0324,0.013523,0.002678,0.000431,0.005876
129975000,0.0324,0.013523,0.002678,0.000431,0.005524
129976000,0.0324,0.013523,0.002678,0.000431,0.005759
129977000,0.0324,0.013523,0.002678,0.000431,0.005994
129978000,0.0324,0.013523,0.002678,0.000431,0.005641
129979000,0.0324,0.013523,0.002678,0.000431,0.007404
129980000,0.0324,0.013523,0.002678,0.000431,0.004819
129981000,0.0324,0.013523,0.002678,0.000431,0.005171
129982000,0.0324,0.013523,0.002678,0.000431,0.004584
129983000,0.0324,0.013523,0.002678,0.000431,0.005171
129984000,0.0324,0.013523,0.002678,0.000431,0.004584
129985000,0.0324,0.013523,0.002678,0.000431,0.004936
129986000,0.0324,0.013523,0.002678,0.000431,0.005289
129987000,0.0324,0.013523,0.002678,0.000431,0.004584
129988000,0.0324,0.013523,0.002678,0.000431,0.004819
129989000,0.0324,0.013523,0.002678,0.000431,0.005054
129990000,0.0324,0.013523,0.002678,0.000431,0.005171
129991000,0.0324,0.013523,0.002678,0.000431,0.004466
129992000,0.0324,0.013523,0.002678,0.000431,0.005054
129993000,0.0324,0.013523,0.002678,0.000431,0.005054
129994000,0.0324,0.013523,0.002678,0.000431,0.004701
129995000,0.0324,0.013523,0.002678,0.000431,0.003878
129996000,0.0324,0.013523,0.002678,0.000431,0.004113
129997000,0.0324,0.013523,0.002678,0.000431,0.004113
129998000,0.0324,0.013523,0.002678,0.000431,0.003996
129999000,0.0324,0.013523,0.002678,0.000431,0.004701
