Cycle,Area(mm^2),PeakDynamic(W),SubthresholdLeakage(W),GateLeakage(W),RunTimeDynamic(W)
48000000,0.0324,0.013523,0.002678,0.000431,0.002821
48001000,0.0324,0.013523,0.002678,0.000431,0.002703
48002000,0.0324,0.013523,0.002678,0.000431,0.002703
48003000,0.0324,0.013523,0.002678,0.000431,0.002821
48004000,0.0324,0.013523,0.002678,0.000431,0.002703
48005000,0.0324,0.013523,0.002678,0.000431,0.002821
48006000,0.0324,0.013523,0.002678,0.000431,0.002468
48007000,0.0324,0.013523,0.002678,0.000431,0.002938
48008000,0.0324,0.013523,0.002678,0.000431,0.002586
48009000,0.0324,0.013523,0.002678,0.000431,0.002586
48010000,0.0324,0.013523,0.002678,0.000431,0.002938
48011000,0.0324,0.013523,0.002678,0.000431,0.002821
48012000,0.0324,0.013523,0.002678,0.000431,0.002703
48013000,0.0324,0.013523,0.002678,0.000431,0.003056
48014000,0.0324,0.013523,0.002678,0.000431,0.002468
48015000,0.0324,0.013523,0.002678,0.000431,0.002821
48016000,0.0324,0.013523,0.002678,0.000431,0.002703
48017000,0.0324,0.013523,0.002678,0.000431,0.002586
48018000,0.0324,0.013523,0.002678,0.000431,0.002938
48019000,0.0324,0.013523,0.002678,0.000431,0.002586
48020000,0.0324,0.013523,0.002678,0.000431,0.002586
48021000,0.0324,0.013523,0.002678,0.000431,0.002821
48022000,0.0324,0.013523,0.002678,0.000431,0.002938
48023000,0.0324,0.013523,0.002678,0.000431,0.002586
48024000,0.0324,0.013523,0.002678,0.000431,0.002586
48025000,0.0324,0.013523,0.002678,0.000431,0.002821
48026000,0.0324,0.013523,0.002678,0.000431,0.002821
48027000,0.0324,0.013523,0.002678,0.000431,0.002468
48028000,0.0324,0.013523,0.002678,0.000431,0.002938
48029000,0.0324,0.013523,0.002678,0.000431,0.002703
48030000,0.0324,0.013523,0.002678,0.000431,0.002938
48031000,0.0324,0.013523,0.002678,0.000431,0.002351
48032000,0.0324,0.013523,0.002678,0.000431,0.002938
48033000,0.0324,0.013523,0.002678,0.000431,0.002703
48034000,0.0324,0.013523,0.002678,0.000431,0.002351
48035000,0.0324,0.013523,0.002678,0.000431,0.003056
48036000,0.0324,0.013523,0.002678,0.000431,0.002821
48037000,0.0324,0.013523,0.002678,0.000431,0.002703
48038000,0.0324,0.013523,0.002678,0.000431,0.002468
48039000,0.0324,0.013523,0.002678,0.000431,0.002938
48040000,0.0324,0.013523,0.002678,0.000431,0.002821
48041000,0.0324,0.013523,0.002678,0.000431,0.002468
48042000,0.0324,0.013523,0.002678,0.000431,0.002703
48043000,0.0324,0.013523,0.002678,0.000431,0.002938
48044000,0.0324,0.013523,0.002678,0.000431,0.002703
48045000,0.0324,0.013523,0.002678,0.000431,0.002703
48046000,0.0324,0.013523,0.002678,0.000431,0.002586
48047000,0.0324,0.013523,0.002678,0.000431,0.002938
48048000,0.0324,0.013523,0.002678,0.000431,0.002586
48049000,0.0324,0.013523,0.002678,0.000431,0.002586
48050000,0.0324,0.013523,0.002678,0.000431,0.002938
48051000,0.0324,0.013523,0.002678,0.000431,0.002468
48052000,0.0324,0.013523,0.002678,0.000431,0.002938
48053000,0.0324,0.013523,0.002678,0.000431,0.002586
48054000,0.0324,0.013523,0.002678,0.000431,0.003056
48055000,0.0324,0.013523,0.002678,0.000431,0.002586
48056000,0.0324,0.013523,0.002678,0.000431,0.002468
48057000,0.0324,0.013523,0.002678,0.000431,0.002938
48058000,0.0324,0.013523,0.002678,0.000431,0.002586
48059000,0.0324,0.013523,0.002678,0.000431,0.002938
48060000,0.0324,0.013523,0.002678,0.000431,0.002468
48061000,0.0324,0.013523,0.002678,0.000431,0.002938
48062000,0.0324,0.013523,0.002678,0.000431,0.002586
48063000,0.0324,0.013523,0.002678,0.000431,0.002703
48064000,0.0324,0.013523,0.002678,0.000431,0.002821
48065000,0.0324,0.013523,0.002678,0.000431,0.002821
48066000,0.0324,0.013523,0.002678,0.000431,0.002703
48067000,0.0324,0.013523,0.002678,0.000431,0.002468
48068000,0.0324,0.013523,0.002678,0.000431,0.002938
48069000,0.0324,0.013523,0.002678,0.000431,0.002703
48070000,0.0324,0.013523,0.002678,0.000431,0.002468
48071000,0.0324,0.013523,0.002678,0.000431,0.002938
48072000,0.0324,0.013523,0.002678,0.000431,0.002821
48073000,0.0324,0.013523,0.002678,0.000431,0.002468
48074000,0.0324,0.013523,0.002678,0.000431,0.002703
48075000,0.0324,0.013523,0.002678,0.000431,0.002938
48076000,0.0324,0.013523,0.002678,0.000431,0.002938
48077000,0.0324,0.013523,0.002678,0.000431,0.002351
48078000,0.0324,0.013523,0.002678,0.000431,0.002821
48079000,0.0324,0.013523,0.002678,0.000431,0.002821
48080000,0.0324,0.013523,0.002678,0.000431,0.002468
48081000,0.0324,0.013523,0.002678,0.000431,0.002821
48082000,0.0324,0.013523,0.002678,0.000431,0.002821
48083000,0.0324,0.013523,0.002678,0.000431,0.002938
48084000,0.0324,0.013523,0.002678,0.000431,0.002351
48085000,0.0324,0.013523,0.002678,0.000431,0.002821
48086000,0.0324,0.013523,0.002678,0.000431,0.002821
48087000,0.0324,0.013523,0.002678,0.000431,0.002586
48088000,0.0324,0.013523,0.002678,0.000431,0.002821
48089000,0.0324,0.013523,0.002678,0.000431,0.002703
48090000,0.0324,0.013523,0.002678,0.000431,0.002821
48091000,0.0324,0.013523,0.002678,0.000431,0.002703
48092000,0.0324,0.013523,0.002678,0.000431,0.002703
48093000,0.0324,0.013523,0.002678,0.000431,0.002703
48094000,0.0324,0.013523,0.002678,0.000431,0.002586
48095000,0.0324,0.013523,0.002678,0.000431,0.002703
48096000,0.0324,0.013523,0.002678,0.000431,0.002938
48097000,0.0324,0.013523,0.002678,0.000431,0.002586
48098000,0.0324,0.013523,0.002678,0.000431,0.002821
48099000,0.0324,0.013523,0.002678,0.000431,0.002586
48100000,0.0324,0.013523,0.002678,0.000431,0.002938
48101000,0.0324,0.013523,0.002678,0.000431,0.002468
48102000,0.0324,0.013523,0.002678,0.000431,0.002703
48103000,0.0324,0.013523,0.002678,0.000431,0.002938
48104000,0.0324,0.013523,0.002678,0.000431,0.002468
48105000,0.0324,0.013523,0.002678,0.000431,0.002938
48106000,0.0324,0.013523,0.002678,0.000431,0.002586
48107000,0.0324,0.013523,0.002678,0.000431,0.002938
48108000,0.0324,0.013523,0.002678,0.000431,0.002586
48109000,0.0324,0.013523,0.002678,0.000431,0.002703
48110000,0.0324,0.013523,0.002678,0.000431,0.002821
48111000,0.0324,0.013523,0.002678,0.000431,0.002821
48112000,0.0324,0.013523,0.002678,0.000431,0.002703
48113000,0.0324,0.013523,0.002678,0.000431,0.002468
48114000,0.0324,0.013523,0.002678,0.000431,0.002938
48115000,0.0324,0.013523,0.002678,0.000431,0.002703
48116000,0.0324,0.013523,0.002678,0.000431,0.002468
48117000,0.0324,0.013523,0.002678,0.000431,0.002938
48118000,0.0324,0.013523,0.002678,0.000431,0.002821
48119000,0.0324,0.013523,0.002678,0.000431,0.002468
48120000,0.0324,0.013523,0.002678,0.000431,0.002703
48121000,0.0324,0.013523,0.002678,0.000431,0.002938
48122000,0.0324,0.013523,0.002678,0.000431,0.002938
48123000,0.0324,0.013523,0.002678,0.000431,0.002351
48124000,0.0324,0.013523,0.002678,0.000431,0.002703
48125000,0.0324,0.013523,0.002678,0.000431,0.002938
48126000,0.0324,0.013523,0.002678,0.000431,0.002586
48127000,0.0324,0.013523,0.002678,0.000431,0.002703
48128000,0.0324,0.013523,0.002678,0.000431,0.002703
48129000,0.0324,0.013523,0.002678,0.000431,0.003056
48130000,0.0324,0.013523,0.002678,0.000431,0.002351
48131000,0.0324,0.013523,0.002678,0.000431,0.002821
48132000,0.0324,0.013523,0.002678,0.000431,0.002821
48133000,0.0324,0.013523,0.002678,0.000431,0.002586
48134000,0.0324,0.013523,0.002678,0.000431,0.002703
48135000,0.0324,0.013523,0.002678,0.000431,0.002703
48136000,0.0324,0.013523,0.002678,0.000431,0.002938
48137000,0.0324,0.013523,0.002678,0.000431,0.002703
48138000,0.0324,0.013523,0.002678,0.000431,0.002586
48139000,0.0324,0.013523,0.002678,0.000431,0.002821
48140000,0.0324,0.013523,0.002678,0.000431,0.002586
48141000,0.0324,0.013523,0.002678,0.000431,0.002703
48142000,0.0324,0.013523,0.002678,0.000431,0.002821
48143000,0.0324,0.013523,0.002678,0.000431,0.002703
48144000,0.0324,0.013523,0.002678,0.000431,0.002821
48145000,0.0324,0.013523,0.002678,0.000431,0.002586
48146000,0.0324,0.013523,0.002678,0.000431,0.002938
48147000,0.0324,0.013523,0.002678,0.000431,0.002468
48148000,0.0324,0.013523,0.002678,0.000431,0.002703
48149000,0.0324,0.013523,0.002678,0.000431,0.002821
48150000,0.0324,0.013523,0.002678,0.000431,0.002586
48151000,0.0324,0.013523,0.002678,0.000431,0.002938
48152000,0.0324,0.013523,0.002678,0.000431,0.002586
48153000,0.0324,0.013523,0.002678,0.000431,0.002821
48154000,0.0324,0.013523,0.002678,0.000431,0.002586
48155000,0.0324,0.013523,0.002678,0.000431,0.002703
48156000,0.0324,0.013523,0.002678,0.000431,0.002938
48157000,0.0324,0.013523,0.002678,0.000431,0.002703
48158000,0.0324,0.013523,0.002678,0.000431,0.002703
48159000,0.0324,0.013523,0.002678,0.000431,0.002586
48160000,0.0324,0.013523,0.002678,0.000431,0.002938
48161000,0.0324,0.013523,0.002678,0.000431,0.002468
48162000,0.0324,0.013523,0.002678,0.000431,0.002586
48163000,0.0324,0.013523,0.002678,0.000431,0.003056
48164000,0.0324,0.013523,0.002678,0.000431,0.002821
48165000,0.0324,0.013523,0.002678,0.000431,0.002468
48166000,0.0324,0.013523,0.002678,0.000431,0.002703
48167000,0.0324,0.013523,0.002678,0.000431,0.002938
48168000,0.0324,0.013523,0.002678,0.000431,0.002938
48169000,0.0324,0.013523,0.002678,0.000431,0.002233
48170000,0.0324,0.013523,0.002678,0.000431,0.002821
48171000,0.0324,0.013523,0.002678,0.000431,0.003056
48172000,0.0324,0.013523,0.002678,0.000431,0.002586
48173000,0.0324,0.013523,0.002678,0.000431,0.003056
48174000,0.0324,0.013523,0.002678,0.000431,0.002468
48175000,0.0324,0.013523,0.002678,0.000431,0.002938
48176000,0.0324,0.013523,0.002678,0.000431,0.002586
48177000,0.0324,0.013523,0.002678,0.000431,0.002468
48178000,0.0324,0.013523,0.002678,0.000431,0.003056
48179000,0.0324,0.013523,0.002678,0.000431,0.002821
48180000,0.0324,0.013523,0.002678,0.000431,0.002351
48181000,0.0324,0.013523,0.002678,0.000431,0.002821
48182000,0.0324,0.013523,0.002678,0.000431,0.002938
48183000,0.0324,0.013523,0.002678,0.000431,0.002703
48184000,0.0324,0.013523,0.002678,0.000431,0.002351
48185000,0.0324,0.013523,0.002678,0.000431,0.002938
48186000,0.0324,0.013523,0.002678,0.000431,0.002938
48187000,0.0324,0.013523,0.002678,0.000431,0.002468
48188000,0.0324,0.013523,0.002678,0.000431,0.002703
48189000,0.0324,0.013523,0.002678,0.000431,0.002821
48190000,0.0324,0.013523,0.002678,0.000431,0.003056
48191000,0.0324,0.013523,0.002678,0.000431,0.002233
48192000,0.0324,0.013523,0.002678,0.000431,0.002938
48193000,0.0324,0.013523,0.002678,0.000431,0.002821
48194000,0.0324,0.013523,0.002678,0.000431,0.002586
48195000,0.0324,0.013523,0.002678,0.000431,0.002703
48196000,0.0324,0.013523,0.002678,0.000431,0.002703
48197000,0.0324,0.013523,0.002678,0.000431,0.002938
48198000,0.0324,0.013523,0.002678,0.000431,0.002351
48199000,0.0324,0.013523,0.002678,0.000431,0.002938
48200000,0.0324,0.013523,0.002678,0.000431,0.002821
48201000,0.0324,0.013523,0.002678,0.000431,0.002586
48202000,0.0324,0.013523,0.002678,0.000431,0.002703
48203000,0.0324,0.013523,0.002678,0.000431,0.002703
48204000,0.0324,0.013523,0.002678,0.000431,0.002821
48205000,0.0324,0.013523,0.002678,0.000431,0.002821
48206000,0.0324,0.013523,0.002678,0.000431,0.002586
48207000,0.0324,0.013523,0.002678,0.000431,0.002821
48208000,0.0324,0.013523,0.002678,0.000431,0.002586
48209000,0.0324,0.013523,0.002678,0.000431,0.002703
48210000,0.0324,0.013523,0.002678,0.000431,0.002821
48211000,0.0324,0.013523,0.002678,0.000431,0.002468
48212000,0.0324,0.013523,0.002678,0.000431,0.003056
48213000,0.0324,0.013523,0.002678,0.000431,0.002468
48214000,0.0324,0.013523,0.002678,0.000431,0.002938
48215000,0.0324,0.013523,0.002678,0.000431,0.002586
48216000,0.0324,0.013523,0.002678,0.000431,0.002703
48217000,0.0324,0.013523,0.002678,0.000431,0.002821
48218000,0.0324,0.013523,0.002678,0.000431,0.002468
48219000,0.0324,0.013523,0.002678,0.000431,0.003056
48220000,0.0324,0.013523,0.002678,0.000431,0.002586
48221000,0.0324,0.013523,0.002678,0.000431,0.002821
48222000,0.0324,0.013523,0.002678,0.000431,0.002586
48223000,0.0324,0.013523,0.002678,0.000431,0.002586
48224000,0.0324,0.013523,0.002678,0.000431,0.003056
48225000,0.0324,0.013523,0.002678,0.000431,0.002703
48226000,0.0324,0.013523,0.002678,0.000431,0.002351
48227000,0.0324,0.013523,0.002678,0.000431,0.002938
48228000,0.0324,0.013523,0.002678,0.000431,0.002938
48229000,0.0324,0.013523,0.002678,0.000431,0.002586
48230000,0.0324,0.013523,0.002678,0.000431,0.002938
48231000,0.0324,0.013523,0.002678,0.000431,0.002586
48232000,0.0324,0.013523,0.002678,0.000431,0.002821
48233000,0.0324,0.013523,0.002678,0.000431,0.002703
48234000,0.0324,0.013523,0.002678,0.000431,0.002586
48235000,0.0324,0.013523,0.002678,0.000431,0.002938
48236000,0.0324,0.013523,0.002678,0.000431,0.002703
48237000,0.0324,0.013523,0.002678,0.000431,0.002821
48238000,0.0324,0.013523,0.002678,0.000431,0.002468
48239000,0.0324,0.013523,0.002678,0.000431,0.002938
48240000,0.0324,0.013523,0.002678,0.000431,0.002821
48241000,0.0324,0.013523,0.002678,0.000431,0.002351
48242000,0.0324,0.013523,0.002678,0.000431,0.002938
48243000,0.0324,0.013523,0.002678,0.000431,0.002821
48244000,0.0324,0.013523,0.002678,0.000431,0.002468
48245000,0.0324,0.013523,0.002678,0.000431,0.002703
48246000,0.0324,0.013523,0.002678,0.000431,0.002938
48247000,0.0324,0.013523,0.002678,0.000431,0.002938
48248000,0.0324,0.013523,0.002678,0.000431,0.002351
48249000,0.0324,0.013523,0.002678,0.000431,0.002821
48250000,0.0324,0.013523,0.002678,0.000431,0.002821
48251000,0.0324,0.013523,0.002678,0.000431,0.002821
48252000,0.0324,0.013523,0.002678,0.000431,0.002468
48253000,0.0324,0.013523,0.002678,0.000431,0.002821
48254000,0.0324,0.013523,0.002678,0.000431,0.002938
48255000,0.0324,0.013523,0.002678,0.000431,0.002468
48256000,0.0324,0.013523,0.002678,0.000431,0.002821
48257000,0.0324,0.013523,0.002678,0.000431,0.002703
48258000,0.0324,0.013523,0.002678,0.000431,0.002586
48259000,0.0324,0.013523,0.002678,0.000431,0.002821
48260000,0.0324,0.013523,0.002678,0.000431,0.002821
48261000,0.0324,0.013523,0.002678,0.000431,0.002703
48262000,0.0324,0.013523,0.002678,0.000431,0.002703
48263000,0.0324,0.013523,0.002678,0.000431,0.002703
48264000,0.0324,0.013523,0.002678,0.000431,0.002821
48265000,0.0324,0.013523,0.002678,0.000431,0.002468
48266000,0.0324,0.013523,0.002678,0.000431,0.003056
48267000,0.0324,0.013523,0.002678,0.000431,0.002586
48268000,0.0324,0.013523,0.002678,0.000431,0.002703
48269000,0.0324,0.013523,0.002678,0.000431,0.002703
48270000,0.0324,0.013523,0.002678,0.000431,0.002586
48271000,0.0324,0.013523,0.002678,0.000431,0.002938
48272000,0.0324,0.013523,0.002678,0.000431,0.002586
48273000,0.0324,0.013523,0.002678,0.000431,0.004113
48274000,0.0324,0.013523,0.002678,0.000431,0.001998
48275000,0.0324,0.013523,0.002678,0.000431,0.001763
48276000,0.0324,0.013523,0.002678,0.000431,0.001998
48277000,0.0324,0.013523,0.002678,0.000431,0.001645
48278000,0.0324,0.013523,0.002678,0.000431,0.001998
48279000,0.0324,0.013523,0.002678,0.000431,0.001763
48280000,0.0324,0.013523,0.002678,0.000431,0.001763
48281000,0.0324,0.013523,0.002678,0.000431,0.001998
48282000,0.0324,0.013523,0.002678,0.000431,0.001880
48283000,0.0324,0.013523,0.002678,0.000431,0.001880
48284000,0.0324,0.013523,0.002678,0.000431,0.001645
48285000,0.0324,0.013523,0.002678,0.000431,0.001998
48286000,0.0324,0.013523,0.002678,0.000431,0.001998
48287000,0.0324,0.013523,0.002678,0.000431,0.001410
48288000,0.0324,0.013523,0.002678,0.000431,0.002116
48289000,0.0324,0.013523,0.002678,0.000431,0.001880
48290000,0.0324,0.013523,0.002678,0.000431,0.001645
48291000,0.0324,0.013523,0.002678,0.000431,0.001880
48292000,0.0324,0.013523,0.002678,0.000431,0.001998
48293000,0.0324,0.013523,0.002678,0.000431,0.001998
48294000,0.0324,0.013523,0.002678,0.000431,0.001410
48295000,0.0324,0.013523,0.002678,0.000431,0.001998
48296000,0.0324,0.013523,0.002678,0.000431,0.001998
48297000,0.0324,0.013523,0.002678,0.000431,0.001880
48298000,0.0324,0.013523,0.002678,0.000431,0.001645
48299000,0.0324,0.013523,0.002678,0.000431,0.001880
48300000,0.0324,0.013523,0.002678,0.000431,0.002116
48301000,0.0324,0.013523,0.002678,0.000431,0.001645
48302000,0.0324,0.013523,0.002678,0.000431,0.001880
48303000,0.0324,0.013523,0.002678,0.000431,0.001998
48304000,0.0324,0.013523,0.002678,0.000431,0.001998
48305000,0.0324,0.013523,0.002678,0.000431,0.001410
48306000,0.0324,0.013523,0.002678,0.000431,0.002116
48307000,0.0324,0.013523,0.002678,0.000431,0.001880
48308000,0.0324,0.013523,0.002678,0.000431,0.001998
48309000,0.0324,0.013523,0.002678,0.000431,0.001528
48310000,0.0324,0.013523,0.002678,0.000431,0.001998
48311000,0.0324,0.013523,0.002678,0.000431,0.002116
48312000,0.0324,0.013523,0.002678,0.000431,0.001763
48313000,0.0324,0.013523,0.002678,0.000431,0.002116
48314000,0.0324,0.013523,0.002678,0.000431,0.001645
48315000,0.0324,0.013523,0.002678,0.000431,0.001998
48316000,0.0324,0.013523,0.002678,0.000431,0.001763
48317000,0.0324,0.013523,0.002678,0.000431,0.001763
48318000,0.0324,0.013523,0.002678,0.000431,0.001998
48319000,0.0324,0.013523,0.002678,0.000431,0.001880
48320000,0.0324,0.013523,0.002678,0.000431,0.001880
48321000,0.0324,0.013523,0.002678,0.000431,0.001645
48322000,0.0324,0.013523,0.002678,0.000431,0.001998
48323000,0.0324,0.013523,0.002678,0.000431,0.001880
48324000,0.0324,0.013523,0.002678,0.000431,0.001528
48325000,0.0324,0.013523,0.002678,0.000431,0.002116
48326000,0.0324,0.013523,0.002678,0.000431,0.001880
48327000,0.0324,0.013523,0.002678,0.000431,0.001645
48328000,0.0324,0.013523,0.002678,0.000431,0.001880
48329000,0.0324,0.013523,0.002678,0.000431,0.001998
48330000,0.0324,0.013523,0.002678,0.000431,0.001998
48331000,0.0324,0.013523,0.002678,0.000431,0.001410
48332000,0.0324,0.013523,0.002678,0.000431,0.001998
48333000,0.0324,0.013523,0.002678,0.000431,0.001998
48334000,0.0324,0.013523,0.002678,0.000431,0.001880
48335000,0.0324,0.013523,0.002678,0.000431,0.001645
48336000,0.0324,0.013523,0.002678,0.000431,0.001880
48337000,0.0324,0.013523,0.002678,0.000431,0.002116
48338000,0.0324,0.013523,0.002678,0.000431,0.003173
48339000,0.0324,0.013523,0.002678,0.000431,0.362809
48340000,0.0324,0.013523,0.002678,0.000431,0.681663
48341000,0.0324,0.013523,0.002678,0.000431,0.134687
48342000,0.0324,0.013523,0.002678,0.000431,0.133982
48343000,0.0324,0.013523,0.002678,0.000431,0.156900
48344000,0.0324,0.013523,0.002678,0.000431,0.593165
48345000,0.0324,0.013523,0.002678,0.000431,0.280540
48346000,0.0324,0.013523,0.002678,0.000431,0.263851
48347000,0.0324,0.013523,0.002678,0.000431,0.254213
48348000,0.0324,0.013523,0.002678,0.000431,0.137978
48349000,0.0324,0.013523,0.002678,0.000431,0.155255
48350000,0.0324,0.013523,0.002678,0.000431,0.138683
48351000,0.0324,0.013523,0.002678,0.000431,0.453659
48352000,0.0324,0.013523,0.002678,0.000431,0.068049
48353000,0.0324,0.013523,0.002678,0.000431,0.043015
48354000,0.0324,0.013523,0.002678,0.000431,0.038549
48355000,0.0324,0.013523,0.002678,0.000431,0.031850
48356000,0.0324,0.013523,0.002678,0.000431,0.023036
48357000,0.0324,0.013523,0.002678,0.000431,0.020685
48358000,0.0324,0.013523,0.002678,0.000431,0.016807
48359000,0.0324,0.013523,0.002678,0.000431,0.021390
48360000,0.0324,0.013523,0.002678,0.000431,0.017042
48361000,0.0324,0.013523,0.002678,0.000431,0.012928
48362000,0.0324,0.013523,0.002678,0.000431,0.014338
48363000,0.0324,0.013523,0.002678,0.000431,0.016689
48364000,0.0324,0.013523,0.002678,0.000431,0.012693
48365000,0.0324,0.013523,0.002678,0.000431,0.013398
48366000,0.0324,0.013523,0.002678,0.000431,0.013163
48367000,0.0324,0.013523,0.002678,0.000431,0.015866
48368000,0.0324,0.013523,0.002678,0.000431,0.011870
48369000,0.0324,0.013523,0.002678,0.000431,0.010813
48370000,0.0324,0.013523,0.002678,0.000431,0.012693
48371000,0.0324,0.013523,0.002678,0.000431,0.012223
48372000,0.0324,0.013523,0.002678,0.000431,0.008227
48373000,0.0324,0.013523,0.002678,0.000431,0.007404
48374000,0.0324,0.013523,0.002678,0.000431,0.005406
48375000,0.0324,0.013523,0.002678,0.000431,0.005641
48376000,0.0324,0.013523,0.002678,0.000431,0.004936
48377000,0.0324,0.013523,0.002678,0.000431,0.005759
48378000,0.0324,0.013523,0.002678,0.000431,0.005171
48379000,0.0324,0.013523,0.002678,0.000431,0.005406
48380000,0.0324,0.013523,0.002678,0.000431,0.005054
48381000,0.0324,0.013523,0.002678,0.000431,0.005406
48382000,0.0324,0.013523,0.002678,0.000431,0.005641
48383000,0.0324,0.013523,0.002678,0.000431,0.004936
48384000,0.0324,0.013523,0.002678,0.000431,0.005406
48385000,0.0324,0.013523,0.002678,0.000431,0.005524
48386000,0.0324,0.013523,0.002678,0.000431,0.005289
48387000,0.0324,0.013523,0.002678,0.000431,0.005289
48388000,0.0324,0.013523,0.002678,0.000431,0.005171
48389000,0.0324,0.013523,0.002678,0.000431,0.005524
48390000,0.0324,0.013523,0.002678,0.000431,0.005289
48391000,0.0324,0.013523,0.002678,0.000431,0.005289
48392000,0.0324,0.013523,0.002678,0.000431,0.005406
48393000,0.0324,0.013523,0.002678,0.000431,0.005406
48394000,0.0324,0.013523,0.002678,0.000431,0.005759
48395000,0.0324,0.013523,0.002678,0.000431,0.004701
48396000,0.0324,0.013523,0.002678,0.000431,0.005641
48397000,0.0324,0.013523,0.002678,0.000431,0.005994
48398000,0.0324,0.013523,0.002678,0.000431,0.003643
48399000,0.0324,0.013523,0.002678,0.000431,0.003878
48400000,0.0324,0.013523,0.002678,0.000431,0.003291
48401000,0.0324,0.013523,0.002678,0.000431,0.004113
48402000,0.0324,0.013523,0.002678,0.000431,0.003526
48403000,0.0324,0.013523,0.002678,0.000431,0.003408
48404000,0.0324,0.013523,0.002678,0.000431,0.003996
48405000,0.0324,0.013523,0.002678,0.000431,0.003408
48406000,0.0324,0.013523,0.002678,0.000431,0.003996
48407000,0.0324,0.013523,0.002678,0.000431,0.003408
48408000,0.0324,0.013523,0.002678,0.000431,0.003878
48409000,0.0324,0.013523,0.002678,0.000431,0.003643
48410000,0.0324,0.013523,0.002678,0.000431,0.003291
48411000,0.0324,0.013523,0.002678,0.000431,0.004231
48412000,0.0324,0.013523,0.002678,0.000431,0.003291
48413000,0.0324,0.013523,0.002678,0.000431,0.003878
48414000,0.0324,0.013523,0.002678,0.000431,0.003643
48415000,0.0324,0.013523,0.002678,0.000431,0.003408
48416000,0.0324,0.013523,0.002678,0.000431,0.004231
48417000,0.0324,0.013523,0.002678,0.000431,0.003173
48418000,0.0324,0.013523,0.002678,0.000431,0.003996
48419000,0.0324,0.013523,0.002678,0.000431,0.003761
48420000,0.0324,0.013523,0.002678,0.000431,0.003761
48421000,0.0324,0.013523,0.002678,0.000431,0.003643
48422000,0.0324,0.013523,0.002678,0.000431,0.003878
48423000,0.0324,0.013523,0.002678,0.000431,0.003643
48424000,0.0324,0.013523,0.002678,0.000431,0.005289
48425000,0.0324,0.013523,0.002678,0.000431,0.002586
48426000,0.0324,0.013523,0.002678,0.000431,0.002586
48427000,0.0324,0.013523,0.002678,0.000431,0.002468
48428000,0.0324,0.013523,0.002678,0.000431,0.002586
48429000,0.0324,0.013523,0.002678,0.000431,0.002351
48430000,0.0324,0.013523,0.002678,0.000431,0.002586
48431000,0.0324,0.013523,0.002678,0.000431,0.002586
48432000,0.0324,0.013523,0.002678,0.000431,0.002351
48433000,0.0324,0.013523,0.002678,0.000431,0.002586
48434000,0.0324,0.013523,0.002678,0.000431,0.002586
48435000,0.0324,0.013523,0.002678,0.000431,0.002468
48436000,0.0324,0.013523,0.002678,0.000431,0.002468
48437000,0.0324,0.013523,0.002678,0.000431,0.002351
48438000,0.0324,0.013523,0.002678,0.000431,0.002468
48439000,0.0324,0.013523,0.002678,0.000431,0.002821
48440000,0.0324,0.013523,0.002678,0.000431,0.002468
48441000,0.0324,0.013523,0.002678,0.000431,0.002468
48442000,0.0324,0.013523,0.002678,0.000431,0.002351
48443000,0.0324,0.013523,0.002678,0.000431,0.002586
48444000,0.0324,0.013523,0.002678,0.000431,0.002703
48445000,0.0324,0.013523,0.002678,0.000431,0.002468
48446000,0.0324,0.013523,0.002678,0.000431,0.002586
48447000,0.0324,0.013523,0.002678,0.000431,0.002351
48448000,0.0324,0.013523,0.002678,0.000431,0.002586
48449000,0.0324,0.013523,0.002678,0.000431,0.002586
48450000,0.0324,0.013523,0.002678,0.000431,0.002468
48451000,0.0324,0.013523,0.002678,0.000431,0.002586
48452000,0.0324,0.013523,0.002678,0.000431,0.002351
48453000,0.0324,0.013523,0.002678,0.000431,0.002703
48454000,0.0324,0.013523,0.002678,0.000431,0.002468
48455000,0.0324,0.013523,0.002678,0.000431,0.002468
48456000,0.0324,0.013523,0.002678,0.000431,0.002586
48457000,0.0324,0.013523,0.002678,0.000431,0.002351
48458000,0.0324,0.013523,0.002678,0.000431,0.002468
48459000,0.0324,0.013523,0.002678,0.000431,0.002586
48460000,0.0324,0.013523,0.002678,0.000431,0.002586
48461000,0.0324,0.013523,0.002678,0.000431,0.002586
48462000,0.0324,0.013523,0.002678,0.000431,0.002586
48463000,0.0324,0.013523,0.002678,0.000431,0.002351
48464000,0.0324,0.013523,0.002678,0.000431,0.002703
48465000,0.0324,0.013523,0.002678,0.000431,0.005406
48466000,0.0324,0.013523,0.002678,0.000431,0.001763
48467000,0.0324,0.013523,0.002678,0.000431,0.001880
48468000,0.0324,0.013523,0.002678,0.000431,0.001410
48469000,0.0324,0.013523,0.002678,0.000431,0.001880
48470000,0.0324,0.013523,0.002678,0.000431,0.001645
48471000,0.0324,0.013523,0.002678,0.000431,0.001645
48472000,0.0324,0.013523,0.002678,0.000431,0.001763
48473000,0.0324,0.013523,0.002678,0.000431,0.001528
48474000,0.0324,0.013523,0.002678,0.000431,0.001763
48475000,0.0324,0.013523,0.002678,0.000431,0.001645
48476000,0.0324,0.013523,0.002678,0.000431,0.001763
48477000,0.0324,0.013523,0.002678,0.000431,0.001528
48478000,0.0324,0.013523,0.002678,0.000431,0.001763
48479000,0.0324,0.013523,0.002678,0.000431,0.001763
48480000,0.0324,0.013523,0.002678,0.000431,0.001528
48481000,0.0324,0.013523,0.002678,0.000431,0.001763
48482000,0.0324,0.013523,0.002678,0.000431,0.001645
48483000,0.0324,0.013523,0.002678,0.000431,0.001645
48484000,0.0324,0.013523,0.002678,0.000431,0.001645
48485000,0.0324,0.013523,0.002678,0.000431,0.001645
48486000,0.0324,0.013523,0.002678,0.000431,0.001528
48487000,0.0324,0.013523,0.002678,0.000431,0.001880
48488000,0.0324,0.013523,0.002678,0.000431,0.001763
48489000,0.0324,0.013523,0.002678,0.000431,0.001528
48490000,0.0324,0.013523,0.002678,0.000431,0.001645
48491000,0.0324,0.013523,0.002678,0.000431,0.001645
48492000,0.0324,0.013523,0.002678,0.000431,0.001880
48493000,0.0324,0.013523,0.002678,0.000431,0.001645
48494000,0.0324,0.013523,0.002678,0.000431,0.001645
48495000,0.0324,0.013523,0.002678,0.000431,0.001645
48496000,0.0324,0.013523,0.002678,0.000431,0.001645
48497000,0.0324,0.013523,0.002678,0.000431,0.001763
48498000,0.0324,0.013523,0.002678,0.000431,0.001645
48499000,0.0324,0.013523,0.002678,0.000431,0.001763
48500000,0.0324,0.013523,0.002678,0.000431,0.001528
48501000,0.0324,0.013523,0.002678,0.000431,0.001763
48502000,0.0324,0.013523,0.002678,0.000431,0.001763
48503000,0.0324,0.013523,0.002678,0.000431,0.001528
48504000,0.0324,0.013523,0.002678,0.000431,0.001763
48505000,0.0324,0.013523,0.002678,0.000431,0.001645
48506000,0.0324,0.013523,0.002678,0.000431,0.001528
48507000,0.0324,0.013523,0.002678,0.000431,0.001763
48508000,0.0324,0.013523,0.002678,0.000431,0.001763
48509000,0.0324,0.013523,0.002678,0.000431,0.002938
48510000,0.0324,0.013523,0.002678,0.000431,0.000940
48511000,0.0324,0.013523,0.002678,0.000431,0.000823
48512000,0.0324,0.013523,0.002678,0.000431,0.000823
48513000,0.0324,0.013523,0.002678,0.000431,0.000705
48514000,0.0324,0.013523,0.002678,0.000431,0.000940
48515000,0.0324,0.013523,0.002678,0.000431,0.000940
48516000,0.0324,0.013523,0.002678,0.000431,0.000705
48517000,0.0324,0.013523,0.002678,0.000431,0.000940
48518000,0.0324,0.013523,0.002678,0.000431,0.000705
48519000,0.0324,0.013523,0.002678,0.000431,0.000940
48520000,0.0324,0.013523,0.002678,0.000431,0.000823
48521000,0.0324,0.013523,0.002678,0.000431,0.000823
48522000,0.0324,0.013523,0.002678,0.000431,0.000940
48523000,0.0324,0.013523,0.002678,0.000431,0.000823
48524000,0.0324,0.013523,0.002678,0.000431,0.000823
48525000,0.0324,0.013523,0.002678,0.000431,0.000940
48526000,0.0324,0.013523,0.002678,0.000431,0.000940
48527000,0.0324,0.013523,0.002678,0.000431,0.000823
48528000,0.0324,0.013523,0.002678,0.000431,0.000823
48529000,0.0324,0.013523,0.002678,0.000431,0.000940
48530000,0.0324,0.013523,0.002678,0.000431,0.000823
48531000,0.0324,0.013523,0.002678,0.000431,0.000940
48532000,0.0324,0.013523,0.002678,0.000431,0.000823
48533000,0.0324,0.013523,0.002678,0.000431,0.000823
48534000,0.0324,0.013523,0.002678,0.000431,0.000823
48535000,0.0324,0.013523,0.002678,0.000431,0.000705
48536000,0.0324,0.013523,0.002678,0.000431,0.000940
48537000,0.0324,0.013523,0.002678,0.000431,0.000940
48538000,0.0324,0.013523,0.002678,0.000431,0.000705
48539000,0.0324,0.013523,0.002678,0.000431,0.000940
48540000,0.0324,0.013523,0.002678,0.000431,0.000823
48541000,0.0324,0.013523,0.002678,0.000431,0.000823
48542000,0.0324,0.013523,0.002678,0.000431,0.000705
48543000,0.0324,0.013523,0.002678,0.000431,0.000940
48544000,0.0324,0.013523,0.002678,0.000431,0.000940
48545000,0.0324,0.013523,0.002678,0.000431,0.000705
48546000,0.0324,0.013523,0.002678,0.000431,0.000940
48547000,0.0324,0.013523,0.002678,0.000431,0.000705
48548000,0.0324,0.013523,0.002678,0.000431,0.000940
48549000,0.0324,0.013523,0.002678,0.000431,0.000823
48550000,0.0324,0.013523,0.002678,0.000431,0.000823
48551000,0.0324,0.013523,0.002678,0.000431,0.000940
48552000,0.0324,0.013523,0.002678,0.000431,0.000705
48553000,0.0324,0.013523,0.002678,0.000431,0.000940
48554000,0.0324,0.013523,0.002678,0.000431,0.000823
48555000,0.0324,0.013523,0.002678,0.000431,0.000823
48556000,0.0324,0.013523,0.002678,0.000431,0.000823
48557000,0.0324,0.013523,0.002678,0.000431,0.000823
48558000,0.0324,0.013523,0.002678,0.000431,0.000940
48559000,0.0324,0.013523,0.002678,0.000431,0.000705
48560000,0.0324,0.013523,0.002678,0.000431,0.000940
48561000,0.0324,0.013523,0.002678,0.000431,0.000823
48562000,0.0324,0.013523,0.002678,0.000431,0.000823
48563000,0.0324,0.013523,0.002678,0.000431,0.000823
48564000,0.0324,0.013523,0.002678,0.000431,0.000823
48565000,0.0324,0.013523,0.002678,0.000431,0.000823
48566000,0.0324,0.013523,0.002678,0.000431,0.000823
48567000,0.0324,0.013523,0.002678,0.000431,0.000940
48568000,0.0324,0.013523,0.002678,0.000431,0.000705
48569000,0.0324,0.013523,0.002678,0.000431,0.000940
48570000,0.0324,0.013523,0.002678,0.000431,0.000705
48571000,0.0324,0.013523,0.002678,0.000431,0.000940
48572000,0.0324,0.013523,0.002678,0.000431,0.000940
48573000,0.0324,0.013523,0.002678,0.000431,0.000705
48574000,0.0324,0.013523,0.002678,0.000431,0.000940
48575000,0.0324,0.013523,0.002678,0.000431,0.000705
48576000,0.0324,0.013523,0.002678,0.000431,0.000940
48577000,0.0324,0.013523,0.002678,0.000431,0.000823
48578000,0.0324,0.013523,0.002678,0.000431,0.000823
48579000,0.0324,0.013523,0.002678,0.000431,0.000940
48580000,0.0324,0.013523,0.002678,0.000431,0.000705
48581000,0.0324,0.013523,0.002678,0.000431,0.000940
48582000,0.0324,0.013523,0.002678,0.000431,0.000823
48583000,0.0324,0.013523,0.002678,0.000431,0.000823
48584000,0.0324,0.013523,0.002678,0.000431,0.000823
48585000,0.0324,0.013523,0.002678,0.000431,0.000823
48586000,0.0324,0.013523,0.002678,0.000431,0.000940
48587000,0.0324,0.013523,0.002678,0.000431,0.000705
48588000,0.0324,0.013523,0.002678,0.000431,0.000940
48589000,0.0324,0.013523,0.002678,0.000431,0.000823
48590000,0.0324,0.013523,0.002678,0.000431,0.000823
48591000,0.0324,0.013523,0.002678,0.000431,0.000823
48592000,0.0324,0.013523,0.002678,0.000431,0.000823
48593000,0.0324,0.013523,0.002678,0.000431,0.000823
48594000,0.0324,0.013523,0.002678,0.000431,0.000823
48595000,0.0324,0.013523,0.002678,0.000431,0.000823
48596000,0.0324,0.013523,0.002678,0.000431,0.000940
48597000,0.0324,0.013523,0.002678,0.000431,0.000823
48598000,0.0324,0.013523,0.002678,0.000431,0.000823
48599000,0.0324,0.013523,0.002678,0.000431,0.000823
48600000,0.0324,0.013523,0.002678,0.000431,0.000705
48601000,0.0324,0.013523,0.002678,0.000431,0.000940
48602000,0.0324,0.013523,0.002678,0.000431,0.000940
48603000,0.0324,0.013523,0.002678,0.000431,0.000705
48604000,0.0324,0.013523,0.002678,0.000431,0.000940
48605000,0.0324,0.013523,0.002678,0.000431,0.000705
48606000,0.0324,0.013523,0.002678,0.000431,0.000940
48607000,0.0324,0.013523,0.002678,0.000431,0.000940
48608000,0.0324,0.013523,0.002678,0.000431,0.000705
48609000,0.0324,0.013523,0.002678,0.000431,0.000940
48610000,0.0324,0.013523,0.002678,0.000431,0.000705
48611000,0.0324,0.013523,0.002678,0.000431,0.000940
48612000,0.0324,0.013523,0.002678,0.000431,0.000823
48613000,0.0324,0.013523,0.002678,0.000431,0.000823
48614000,0.0324,0.013523,0.002678,0.000431,0.000823
48615000,0.0324,0.013523,0.002678,0.000431,0.000823
48616000,0.0324,0.013523,0.002678,0.000431,0.000940
48617000,0.0324,0.013523,0.002678,0.000431,0.000705
48618000,0.0324,0.013523,0.002678,0.000431,0.000940
48619000,0.0324,0.013523,0.002678,0.000431,0.000823
48620000,0.0324,0.013523,0.002678,0.000431,0.000823
48621000,0.0324,0.013523,0.002678,0.000431,0.000823
48622000,0.0324,0.013523,0.002678,0.000431,0.000823
48623000,0.0324,0.013523,0.002678,0.000431,0.000940
48624000,0.0324,0.013523,0.002678,0.000431,0.000705
48625000,0.0324,0.013523,0.002678,0.000431,0.000940
48626000,0.0324,0.013523,0.002678,0.000431,0.000823
48627000,0.0324,0.013523,0.002678,0.000431,0.000823
48628000,0.0324,0.013523,0.002678,0.000431,0.000705
48629000,0.0324,0.013523,0.002678,0.000431,0.000940
48630000,0.0324,0.013523,0.002678,0.000431,0.000940
48631000,0.0324,0.013523,0.002678,0.000431,0.000705
48632000,0.0324,0.013523,0.002678,0.000431,0.000940
48633000,0.0324,0.013523,0.002678,0.000431,0.000705
48634000,0.0324,0.013523,0.002678,0.000431,0.000940
48635000,0.0324,0.013523,0.002678,0.000431,0.000940
48636000,0.0324,0.013523,0.002678,0.000431,0.000705
48637000,0.0324,0.013523,0.002678,0.000431,0.000940
48638000,0.0324,0.013523,0.002678,0.000431,0.000705
48639000,0.0324,0.013523,0.002678,0.000431,0.000940
48640000,0.0324,0.013523,0.002678,0.000431,0.000823
48641000,0.0324,0.013523,0.002678,0.000431,0.000823
48642000,0.0324,0.013523,0.002678,0.000431,0.000823
48643000,0.0324,0.013523,0.002678,0.000431,0.000823
48644000,0.0324,0.013523,0.002678,0.000431,0.000940
48645000,0.0324,0.013523,0.002678,0.000431,0.000823
48646000,0.0324,0.013523,0.002678,0.000431,0.000823
48647000,0.0324,0.013523,0.002678,0.000431,0.000823
48648000,0.0324,0.013523,0.002678,0.000431,0.000823
48649000,0.0324,0.013523,0.002678,0.000431,0.000823
48650000,0.0324,0.013523,0.002678,0.000431,0.000823
48651000,0.0324,0.013523,0.002678,0.000431,0.000940
48652000,0.0324,0.013523,0.002678,0.000431,0.000705
48653000,0.0324,0.013523,0.002678,0.000431,0.000823
48654000,0.0324,0.013523,0.002678,0.000431,0.000940
48655000,0.0324,0.013523,0.002678,0.000431,0.000823
48656000,0.0324,0.013523,0.002678,0.000431,0.000823
48657000,0.0324,0.013523,0.002678,0.000431,0.000823
48658000,0.0324,0.013523,0.002678,0.000431,0.000823
48659000,0.0324,0.013523,0.002678,0.000431,0.000823
48660000,0.0324,0.013523,0.002678,0.000431,0.000940
48661000,0.0324,0.013523,0.002678,0.000431,0.000823
48662000,0.0324,0.013523,0.002678,0.000431,0.000823
48663000,0.0324,0.013523,0.002678,0.000431,0.000705
48664000,0.0324,0.013523,0.002678,0.000431,0.000940
48665000,0.0324,0.013523,0.002678,0.000431,0.000940
48666000,0.0324,0.013523,0.002678,0.000431,0.000705
48667000,0.0324,0.013523,0.002678,0.000431,0.000940
48668000,0.0324,0.013523,0.002678,0.000431,0.000705
48669000,0.0324,0.013523,0.002678,0.000431,0.000940
48670000,0.0324,0.013523,0.002678,0.000431,0.000823
48671000,0.0324,0.013523,0.002678,0.000431,0.000823
48672000,0.0324,0.013523,0.002678,0.000431,0.000940
48673000,0.0324,0.013523,0.002678,0.000431,0.000705
48674000,0.0324,0.013523,0.002678,0.000431,0.000940
48675000,0.0324,0.013523,0.002678,0.000431,0.000823
48676000,0.0324,0.013523,0.002678,0.000431,0.000823
48677000,0.0324,0.013523,0.002678,0.000431,0.000823
48678000,0.0324,0.013523,0.002678,0.000431,0.000823
48679000,0.0324,0.013523,0.002678,0.000431,0.000940
48680000,0.0324,0.013523,0.002678,0.000431,0.000705
48681000,0.0324,0.013523,0.002678,0.000431,0.000940
48682000,0.0324,0.013523,0.002678,0.000431,0.000823
48683000,0.0324,0.013523,0.002678,0.000431,0.000823
48684000,0.0324,0.013523,0.002678,0.000431,0.000823
48685000,0.0324,0.013523,0.002678,0.000431,0.000823
48686000,0.0324,0.013523,0.002678,0.000431,0.000823
48687000,0.0324,0.013523,0.002678,0.000431,0.000823
48688000,0.0324,0.013523,0.002678,0.000431,0.000940
48689000,0.0324,0.013523,0.002678,0.000431,0.000823
48690000,0.0324,0.013523,0.002678,0.000431,0.000823
48691000,0.0324,0.013523,0.002678,0.000431,0.000705
48692000,0.0324,0.013523,0.002678,0.000431,0.000940
48693000,0.0324,0.013523,0.002678,0.000431,0.000940
48694000,0.0324,0.013523,0.002678,0.000431,0.000705
48695000,0.0324,0.013523,0.002678,0.000431,0.000940
48696000,0.0324,0.013523,0.002678,0.000431,0.000705
48697000,0.0324,0.013523,0.002678,0.000431,0.000940
48698000,0.0324,0.013523,0.002678,0.000431,0.000823
48699000,0.0324,0.013523,0.002678,0.000431,0.000823
48700000,0.0324,0.013523,0.002678,0.000431,0.000823
48701000,0.0324,0.013523,0.002678,0.000431,0.000823
48702000,0.0324,0.013523,0.002678,0.000431,0.000940
48703000,0.0324,0.013523,0.002678,0.000431,0.000705
48704000,0.0324,0.013523,0.002678,0.000431,0.000940
48705000,0.0324,0.013523,0.002678,0.000431,0.000823
48706000,0.0324,0.013523,0.002678,0.000431,0.000823
48707000,0.0324,0.013523,0.002678,0.000431,0.000823
48708000,0.0324,0.013523,0.002678,0.000431,0.000823
48709000,0.0324,0.013523,0.002678,0.000431,0.000940
48710000,0.0324,0.013523,0.002678,0.000431,0.000705
48711000,0.0324,0.013523,0.002678,0.000431,0.000823
48712000,0.0324,0.013523,0.002678,0.000431,0.000823
48713000,0.0324,0.013523,0.002678,0.000431,0.000940
48714000,0.0324,0.013523,0.002678,0.000431,0.000823
48715000,0.0324,0.013523,0.002678,0.000431,0.000823
48716000,0.0324,0.013523,0.002678,0.000431,0.000705
48717000,0.0324,0.013523,0.002678,0.000431,0.000940
48718000,0.0324,0.013523,0.002678,0.000431,0.000940
48719000,0.0324,0.013523,0.002678,0.000431,0.000705
48720000,0.0324,0.013523,0.002678,0.000431,0.000940
48721000,0.0324,0.013523,0.002678,0.000431,0.000705
48722000,0.0324,0.013523,0.002678,0.000431,0.000940
48723000,0.0324,0.013523,0.002678,0.000431,0.000823
48724000,0.0324,0.013523,0.002678,0.000431,0.000823
48725000,0.0324,0.013523,0.002678,0.000431,0.000823
48726000,0.0324,0.013523,0.002678,0.000431,0.000823
48727000,0.0324,0.013523,0.002678,0.000431,0.000823
48728000,0.0324,0.013523,0.002678,0.000431,0.000823
48729000,0.0324,0.013523,0.002678,0.000431,0.000940
48730000,0.0324,0.013523,0.002678,0.000431,0.000823
48731000,0.0324,0.013523,0.002678,0.000431,0.000823
48732000,0.0324,0.013523,0.002678,0.000431,0.000823
48733000,0.0324,0.013523,0.002678,0.000431,0.000823
48734000,0.0324,0.013523,0.002678,0.000431,0.000823
48735000,0.0324,0.013523,0.002678,0.000431,0.000823
48736000,0.0324,0.013523,0.002678,0.000431,0.000940
48737000,0.0324,0.013523,0.002678,0.000431,0.000705
48738000,0.0324,0.013523,0.002678,0.000431,0.000940
48739000,0.0324,0.013523,0.002678,0.000431,0.000705
48740000,0.0324,0.013523,0.002678,0.000431,0.000940
48741000,0.0324,0.013523,0.002678,0.000431,0.000940
48742000,0.0324,0.013523,0.002678,0.000431,0.000705
48743000,0.0324,0.013523,0.002678,0.000431,0.000940
48744000,0.0324,0.013523,0.002678,0.000431,0.000705
48745000,0.0324,0.013523,0.002678,0.000431,0.000940
48746000,0.0324,0.013523,0.002678,0.000431,0.000823
48747000,0.0324,0.013523,0.002678,0.000431,0.000823
48748000,0.0324,0.013523,0.002678,0.000431,0.000940
48749000,0.0324,0.013523,0.002678,0.000431,0.000705
48750000,0.0324,0.013523,0.002678,0.000431,0.000940
48751000,0.0324,0.013523,0.002678,0.000431,0.000823
48752000,0.0324,0.013523,0.002678,0.000431,0.000823
48753000,0.0324,0.013523,0.002678,0.000431,0.000823
48754000,0.0324,0.013523,0.002678,0.000431,0.000823
48755000,0.0324,0.013523,0.002678,0.000431,0.000940
48756000,0.0324,0.013523,0.002678,0.000431,0.000705
48757000,0.0324,0.013523,0.002678,0.000431,0.000940
48758000,0.0324,0.013523,0.002678,0.000431,0.000823
48759000,0.0324,0.013523,0.002678,0.000431,0.000705
48760000,0.0324,0.013523,0.002678,0.000431,0.000940
48761000,0.0324,0.013523,0.002678,0.000431,0.000823
48762000,0.0324,0.013523,0.002678,0.000431,0.000823
48763000,0.0324,0.013523,0.002678,0.000431,0.000823
48764000,0.0324,0.013523,0.002678,0.000431,0.000823
48765000,0.0324,0.013523,0.002678,0.000431,0.000823
48766000,0.0324,0.013523,0.002678,0.000431,0.000940
48767000,0.0324,0.013523,0.002678,0.000431,0.000823
48768000,0.0324,0.013523,0.002678,0.000431,0.000823
48769000,0.0324,0.013523,0.002678,0.000431,0.000705
48770000,0.0324,0.013523,0.002678,0.000431,0.000940
48771000,0.0324,0.013523,0.002678,0.000431,0.000940
48772000,0.0324,0.013523,0.002678,0.000431,0.000705
48773000,0.0324,0.013523,0.002678,0.000431,0.000940
48774000,0.0324,0.013523,0.002678,0.000431,0.000705
48775000,0.0324,0.013523,0.002678,0.000431,0.000940
48776000,0.0324,0.013523,0.002678,0.000431,0.000823
48777000,0.0324,0.013523,0.002678,0.000431,0.000823
48778000,0.0324,0.013523,0.002678,0.000431,0.000940
48779000,0.0324,0.013523,0.002678,0.000431,0.000705
48780000,0.0324,0.013523,0.002678,0.000431,0.000940
48781000,0.0324,0.013523,0.002678,0.000431,0.000823
48782000,0.0324,0.013523,0.002678,0.000431,0.000823
48783000,0.0324,0.013523,0.002678,0.000431,0.000823
48784000,0.0324,0.013523,0.002678,0.000431,0.000823
48785000,0.0324,0.013523,0.002678,0.000431,0.000940
48786000,0.0324,0.013523,0.002678,0.000431,0.000705
48787000,0.0324,0.013523,0.002678,0.000431,0.000940
48788000,0.0324,0.013523,0.002678,0.000431,0.000823
48789000,0.0324,0.013523,0.002678,0.000431,0.000823
48790000,0.0324,0.013523,0.002678,0.000431,0.000823
48791000,0.0324,0.013523,0.002678,0.000431,0.000823
48792000,0.0324,0.013523,0.002678,0.000431,0.000940
48793000,0.0324,0.013523,0.002678,0.000431,0.000705
48794000,0.0324,0.013523,0.002678,0.000431,0.000940
48795000,0.0324,0.013523,0.002678,0.000431,0.000823
48796000,0.0324,0.013523,0.002678,0.000431,0.000823
48797000,0.0324,0.013523,0.002678,0.000431,0.000705
48798000,0.0324,0.013523,0.002678,0.000431,0.000940
48799000,0.0324,0.013523,0.002678,0.000431,0.000940
48800000,0.0324,0.013523,0.002678,0.000431,0.000705
48801000,0.0324,0.013523,0.002678,0.000431,0.000940
48802000,0.0324,0.013523,0.002678,0.000431,0.000705
48803000,0.0324,0.013523,0.002678,0.000431,0.000940
48804000,0.0324,0.013523,0.002678,0.000431,0.000823
48805000,0.0324,0.013523,0.002678,0.000431,0.000823
48806000,0.0324,0.013523,0.002678,0.000431,0.000940
48807000,0.0324,0.013523,0.002678,0.000431,0.000705
48808000,0.0324,0.013523,0.002678,0.000431,0.000940
48809000,0.0324,0.013523,0.002678,0.000431,0.000823
48810000,0.0324,0.013523,0.002678,0.000431,0.000823
48811000,0.0324,0.013523,0.002678,0.000431,0.000823
48812000,0.0324,0.013523,0.002678,0.000431,0.000823
48813000,0.0324,0.013523,0.002678,0.000431,0.000940
48814000,0.0324,0.013523,0.002678,0.000431,0.000705
48815000,0.0324,0.013523,0.002678,0.000431,0.000940
48816000,0.0324,0.013523,0.002678,0.000431,0.000823
48817000,0.0324,0.013523,0.002678,0.000431,0.000823
48818000,0.0324,0.013523,0.002678,0.000431,0.000823
48819000,0.0324,0.013523,0.002678,0.000431,0.000823
48820000,0.0324,0.013523,0.002678,0.000431,0.000940
48821000,0.0324,0.013523,0.002678,0.000431,0.000705
48822000,0.0324,0.013523,0.002678,0.000431,0.000823
48823000,0.0324,0.013523,0.002678,0.000431,0.000940
48824000,0.0324,0.013523,0.002678,0.000431,0.000823
48825000,0.0324,0.013523,0.002678,0.000431,0.000823
48826000,0.0324,0.013523,0.002678,0.000431,0.000823
48827000,0.0324,0.013523,0.002678,0.000431,0.000823
48828000,0.0324,0.013523,0.002678,0.000431,0.000823
48829000,0.0324,0.013523,0.002678,0.000431,0.000940
48830000,0.0324,0.013523,0.002678,0.000431,0.000823
48831000,0.0324,0.013523,0.002678,0.000431,0.000823
48832000,0.0324,0.013523,0.002678,0.000431,0.000705
48833000,0.0324,0.013523,0.002678,0.000431,0.000940
48834000,0.0324,0.013523,0.002678,0.000431,0.000940
48835000,0.0324,0.013523,0.002678,0.000431,0.000705
48836000,0.0324,0.013523,0.002678,0.000431,0.000940
48837000,0.0324,0.013523,0.002678,0.000431,0.000823
48838000,0.0324,0.013523,0.002678,0.000431,0.000940
48839000,0.0324,0.013523,0.002678,0.000431,0.000823
48840000,0.0324,0.013523,0.002678,0.000431,0.000940
48841000,0.0324,0.013523,0.002678,0.000431,0.000823
48842000,0.0324,0.013523,0.002678,0.000431,0.000823
48843000,0.0324,0.013523,0.002678,0.000431,0.000940
48844000,0.0324,0.013523,0.002678,0.000431,0.000940
48845000,0.0324,0.013523,0.002678,0.000431,0.000823
48846000,0.0324,0.013523,0.002678,0.000431,0.000823
48847000,0.0324,0.013523,0.002678,0.000431,0.000940
48848000,0.0324,0.013523,0.002678,0.000431,0.000705
48849000,0.0324,0.013523,0.002678,0.000431,0.000940
48850000,0.0324,0.013523,0.002678,0.000431,0.000823
48851000,0.0324,0.013523,0.002678,0.000431,0.000823
48852000,0.0324,0.013523,0.002678,0.000431,0.000705
48853000,0.0324,0.013523,0.002678,0.000431,0.000940
48854000,0.0324,0.013523,0.002678,0.000431,0.000940
48855000,0.0324,0.013523,0.002678,0.000431,0.000705
48856000,0.0324,0.013523,0.002678,0.000431,0.000940
48857000,0.0324,0.013523,0.002678,0.000431,0.000705
48858000,0.0324,0.013523,0.002678,0.000431,0.000940
48859000,0.0324,0.013523,0.002678,0.000431,0.000823
48860000,0.0324,0.013523,0.002678,0.000431,0.000823
48861000,0.0324,0.013523,0.002678,0.000431,0.000940
48862000,0.0324,0.013523,0.002678,0.000431,0.000705
48863000,0.0324,0.013523,0.002678,0.000431,0.000940
48864000,0.0324,0.013523,0.002678,0.000431,0.000823
48865000,0.0324,0.013523,0.002678,0.000431,0.000823
48866000,0.0324,0.013523,0.002678,0.000431,0.000823
48867000,0.0324,0.013523,0.002678,0.000431,0.000823
48868000,0.0324,0.013523,0.002678,0.000431,0.000940
48869000,0.0324,0.013523,0.002678,0.000431,0.000705
48870000,0.0324,0.013523,0.002678,0.000431,0.000940
48871000,0.0324,0.013523,0.002678,0.000431,0.000823
48872000,0.0324,0.013523,0.002678,0.000431,0.000823
48873000,0.0324,0.013523,0.002678,0.000431,0.000823
48874000,0.0324,0.013523,0.002678,0.000431,0.000823
48875000,0.0324,0.013523,0.002678,0.000431,0.000823
48876000,0.0324,0.013523,0.002678,0.000431,0.000823
48877000,0.0324,0.013523,0.002678,0.000431,0.000823
48878000,0.0324,0.013523,0.002678,0.000431,0.000823
48879000,0.0324,0.013523,0.002678,0.000431,0.000940
48880000,0.0324,0.013523,0.002678,0.000431,0.000823
48881000,0.0324,0.013523,0.002678,0.000431,0.000823
48882000,0.0324,0.013523,0.002678,0.000431,0.000705
48883000,0.0324,0.013523,0.002678,0.000431,0.000940
48884000,0.0324,0.013523,0.002678,0.000431,0.000940
48885000,0.0324,0.013523,0.002678,0.000431,0.000705
48886000,0.0324,0.013523,0.002678,0.000431,0.000940
48887000,0.0324,0.013523,0.002678,0.000431,0.000705
48888000,0.0324,0.013523,0.002678,0.000431,0.000940
48889000,0.0324,0.013523,0.002678,0.000431,0.000940
48890000,0.0324,0.013523,0.002678,0.000431,0.000705
48891000,0.0324,0.013523,0.002678,0.000431,0.000940
48892000,0.0324,0.013523,0.002678,0.000431,0.000705
48893000,0.0324,0.013523,0.002678,0.000431,0.000940
48894000,0.0324,0.013523,0.002678,0.000431,0.000823
48895000,0.0324,0.013523,0.002678,0.000431,0.000823
48896000,0.0324,0.013523,0.002678,0.000431,0.000940
48897000,0.0324,0.013523,0.002678,0.000431,0.000705
48898000,0.0324,0.013523,0.002678,0.000431,0.000940
48899000,0.0324,0.013523,0.002678,0.000431,0.000823
48900000,0.0324,0.013523,0.002678,0.000431,0.000823
48901000,0.0324,0.013523,0.002678,0.000431,0.000823
48902000,0.0324,0.013523,0.002678,0.000431,0.000823
48903000,0.0324,0.013523,0.002678,0.000431,0.000823
48904000,0.0324,0.013523,0.002678,0.000431,0.000823
48905000,0.0324,0.013523,0.002678,0.000431,0.000940
48906000,0.0324,0.013523,0.002678,0.000431,0.000823
48907000,0.0324,0.013523,0.002678,0.000431,0.000823
48908000,0.0324,0.013523,0.002678,0.000431,0.000823
48909000,0.0324,0.013523,0.002678,0.000431,0.000823
48910000,0.0324,0.013523,0.002678,0.000431,0.000823
48911000,0.0324,0.013523,0.002678,0.000431,0.000823
48912000,0.0324,0.013523,0.002678,0.000431,0.000940
48913000,0.0324,0.013523,0.002678,0.000431,0.000705
48914000,0.0324,0.013523,0.002678,0.000431,0.000940
48915000,0.0324,0.013523,0.002678,0.000431,0.000705
48916000,0.0324,0.013523,0.002678,0.000431,0.000940
48917000,0.0324,0.013523,0.002678,0.000431,0.000940
48918000,0.0324,0.013523,0.002678,0.000431,0.000705
48919000,0.0324,0.013523,0.002678,0.000431,0.000940
48920000,0.0324,0.013523,0.002678,0.000431,0.000705
48921000,0.0324,0.013523,0.002678,0.000431,0.000940
48922000,0.0324,0.013523,0.002678,0.000431,0.000823
48923000,0.0324,0.013523,0.002678,0.000431,0.000823
48924000,0.0324,0.013523,0.002678,0.000431,0.000940
48925000,0.0324,0.013523,0.002678,0.000431,0.000705
48926000,0.0324,0.013523,0.002678,0.000431,0.000940
48927000,0.0324,0.013523,0.002678,0.000431,0.000823
48928000,0.0324,0.013523,0.002678,0.000431,0.000823
48929000,0.0324,0.013523,0.002678,0.000431,0.000823
48930000,0.0324,0.013523,0.002678,0.000431,0.000823
48931000,0.0324,0.013523,0.002678,0.000431,0.000705
48932000,0.0324,0.013523,0.002678,0.000431,0.000940
48933000,0.0324,0.013523,0.002678,0.000431,0.006934
48934000,0.0324,0.013523,0.002678,0.000431,0.454246
48935000,0.0324,0.013523,0.002678,0.000431,0.631479
48936000,0.0324,0.013523,0.002678,0.000431,0.135628
48937000,0.0324,0.013523,0.002678,0.000431,0.132924
48938000,0.0324,0.013523,0.002678,0.000431,0.246692
48939000,0.0324,0.013523,0.002678,0.000431,0.516771
48940000,0.0324,0.013523,0.002678,0.000431,0.249512
48941000,0.0324,0.013523,0.002678,0.000431,0.360812
48942000,0.0324,0.013523,0.002678,0.000431,0.198153
48943000,0.0324,0.013523,0.002678,0.000431,0.137743
48944000,0.0324,0.013523,0.002678,0.000431,0.113767
48945000,0.0324,0.013523,0.002678,0.000431,0.317326
48946000,0.0324,0.013523,0.002678,0.000431,0.276426
48947000,0.0324,0.013523,0.002678,0.000431,0.042545
48948000,0.0324,0.013523,0.002678,0.000431,0.030087
48949000,0.0324,0.013523,0.002678,0.000431,0.031615
48950000,0.0324,0.013523,0.002678,0.000431,0.021038
48951000,0.0324,0.013523,0.002678,0.000431,0.017394
48952000,0.0324,0.013523,0.002678,0.000431,0.014456
48953000,0.0324,0.013523,0.002678,0.000431,0.015631
48954000,0.0324,0.013523,0.002678,0.000431,0.012811
48955000,0.0324,0.013523,0.002678,0.000431,0.012928
48956000,0.0324,0.013523,0.002678,0.000431,0.013751
48957000,0.0324,0.013523,0.002678,0.000431,0.012576
48958000,0.0324,0.013523,0.002678,0.000431,0.012576
48959000,0.0324,0.013523,0.002678,0.000431,0.010342
48960000,0.0324,0.013523,0.002678,0.000431,0.012576
48961000,0.0324,0.013523,0.002678,0.000431,0.010342
48962000,0.0324,0.013523,0.002678,0.000431,0.009520
48963000,0.0324,0.013523,0.002678,0.000431,0.010342
48964000,0.0324,0.013523,0.002678,0.000431,0.008462
48965000,0.0324,0.013523,0.002678,0.000431,0.008580
48966000,0.0324,0.013523,0.002678,0.000431,0.008580
48967000,0.0324,0.013523,0.002678,0.000431,0.008580
48968000,0.0324,0.013523,0.002678,0.000431,0.008932
48969000,0.0324,0.013523,0.002678,0.000431,0.007639
48970000,0.0324,0.013523,0.002678,0.000431,0.008109
48971000,0.0324,0.013523,0.002678,0.000431,0.007522
48972000,0.0324,0.013523,0.002678,0.000431,0.009520
48973000,0.0324,0.013523,0.002678,0.000431,0.006347
48974000,0.0324,0.013523,0.002678,0.000431,0.007169
48975000,0.0324,0.013523,0.002678,0.000431,0.006817
48976000,0.0324,0.013523,0.002678,0.000431,0.006817
48977000,0.0324,0.013523,0.002678,0.000431,0.006934
48978000,0.0324,0.013523,0.002678,0.000431,0.006934
48979000,0.0324,0.013523,0.002678,0.000431,0.006699
48980000,0.0324,0.013523,0.002678,0.000431,0.007404
48981000,0.0324,0.013523,0.002678,0.000431,0.006582
48982000,0.0324,0.013523,0.002678,0.000431,0.007052
48983000,0.0324,0.013523,0.002678,0.000431,0.006934
48984000,0.0324,0.013523,0.002678,0.000431,0.006582
48985000,0.0324,0.013523,0.002678,0.000431,0.007639
48986000,0.0324,0.013523,0.002678,0.000431,0.006347
48987000,0.0324,0.013523,0.002678,0.000431,0.006582
48988000,0.0324,0.013523,0.002678,0.000431,0.007522
48989000,0.0324,0.013523,0.002678,0.000431,0.006347
48990000,0.0324,0.013523,0.002678,0.000431,0.009050
48991000,0.0324,0.013523,0.002678,0.000431,0.004936
48992000,0.0324,0.013523,0.002678,0.000431,0.005171
48993000,0.0324,0.013523,0.002678,0.000431,0.005171
48994000,0.0324,0.013523,0.002678,0.000431,0.005171
48995000,0.0324,0.013523,0.002678,0.000431,0.004936
48996000,0.0324,0.013523,0.002678,0.000431,0.007639
48997000,0.0324,0.013523,0.002678,0.000431,0.004113
48998000,0.0324,0.013523,0.002678,0.000431,0.004349
48999000,0.0324,0.013523,0.002678,0.000431,0.004231
