Cycle,Area(mm^2),PeakDynamic(W),SubthresholdLeakage(W),GateLeakage(W),RunTimeDynamic(W)
78000000,0.0324,0.013523,0.002678,0.000431,0.037021
78001000,0.0324,0.013523,0.002678,0.000431,0.031615
78002000,0.0324,0.013523,0.002678,0.000431,0.032555
78003000,0.0324,0.013523,0.002678,0.000431,0.027384
78004000,0.0324,0.013523,0.002678,0.000431,0.029852
78005000,0.0324,0.013523,0.002678,0.000431,0.027854
78006000,0.0324,0.013523,0.002678,0.000431,0.029029
78007000,0.0324,0.013523,0.002678,0.000431,0.021508
78008000,0.0324,0.013523,0.002678,0.000431,0.020450
78009000,0.0324,0.013523,0.002678,0.000431,0.024446
78010000,0.0324,0.013523,0.002678,0.000431,0.019157
78011000,0.0324,0.013523,0.002678,0.000431,0.017277
78012000,0.0324,0.013523,0.002678,0.000431,0.018334
78013000,0.0324,0.013523,0.002678,0.000431,0.017394
78014000,0.0324,0.013523,0.002678,0.000431,0.017042
78015000,0.0324,0.013523,0.002678,0.000431,0.015044
78016000,0.0324,0.013523,0.002678,0.000431,0.014691
78017000,0.0324,0.013523,0.002678,0.000431,0.013398
78018000,0.0324,0.013523,0.002678,0.000431,0.014221
78019000,0.0324,0.013523,0.002678,0.000431,0.013281
78020000,0.0324,0.013523,0.002678,0.000431,0.015044
78021000,0.0324,0.013523,0.002678,0.000431,0.012693
78022000,0.0324,0.013523,0.002678,0.000431,0.012693
78023000,0.0324,0.013523,0.002678,0.000431,0.012458
78024000,0.0324,0.013523,0.002678,0.000431,0.013163
78025000,0.0324,0.013523,0.002678,0.000431,0.013986
78026000,0.0324,0.013523,0.002678,0.000431,0.013516
78027000,0.0324,0.013523,0.002678,0.000431,0.008580
78028000,0.0324,0.013523,0.002678,0.000431,0.008227
78029000,0.0324,0.013523,0.002678,0.000431,0.008580
78030000,0.0324,0.013523,0.002678,0.000431,0.010695
78031000,0.0324,0.013523,0.002678,0.000431,0.007639
78032000,0.0324,0.013523,0.002678,0.000431,0.007522
78033000,0.0324,0.013523,0.002678,0.000431,0.010695
78034000,0.0324,0.013523,0.002678,0.000431,0.005171
78035000,0.0324,0.013523,0.002678,0.000431,0.004819
78036000,0.0324,0.013523,0.002678,0.000431,0.005171
78037000,0.0324,0.013523,0.002678,0.000431,0.005406
78038000,0.0324,0.013523,0.002678,0.000431,0.004701
78039000,0.0324,0.013523,0.002678,0.000431,0.005054
78040000,0.0324,0.013523,0.002678,0.000431,0.005054
78041000,0.0324,0.013523,0.002678,0.000431,0.005289
78042000,0.0324,0.013523,0.002678,0.000431,0.005171
78043000,0.0324,0.013523,0.002678,0.000431,0.005994
78044000,0.0324,0.013523,0.002678,0.000431,0.005054
78045000,0.0324,0.013523,0.002678,0.000431,0.004231
78046000,0.0324,0.013523,0.002678,0.000431,0.004231
78047000,0.0324,0.013523,0.002678,0.000431,0.003878
78048000,0.0324,0.013523,0.002678,0.000431,0.004231
78049000,0.0324,0.013523,0.002678,0.000431,0.004113
78050000,0.0324,0.013523,0.002678,0.000431,0.004466
78051000,0.0324,0.013523,0.002678,0.000431,0.003761
78052000,0.0324,0.013523,0.002678,0.000431,0.004466
78053000,0.0324,0.013523,0.002678,0.000431,0.003878
78054000,0.0324,0.013523,0.002678,0.000431,0.004349
78055000,0.0324,0.013523,0.002678,0.000431,0.005406
78056000,0.0324,0.013523,0.002678,0.000431,0.003173
78057000,0.0324,0.013523,0.002678,0.000431,0.003173
78058000,0.0324,0.013523,0.002678,0.000431,0.006464
78059000,0.0324,0.013523,0.002678,0.000431,0.002468
78060000,0.0324,0.013523,0.002678,0.000431,0.002821
78061000,0.0324,0.013523,0.002678,0.000431,0.001998
78062000,0.0324,0.013523,0.002678,0.000431,0.002703
78063000,0.0324,0.013523,0.002678,0.000431,0.002351
78064000,0.0324,0.013523,0.002678,0.000431,0.002586
78065000,0.0324,0.013523,0.002678,0.000431,0.002468
78066000,0.0324,0.013523,0.002678,0.000431,0.002233
78067000,0.0324,0.013523,0.002678,0.000431,0.002586
78068000,0.0324,0.013523,0.002678,0.000431,0.002586
78069000,0.0324,0.013523,0.002678,0.000431,0.002233
78070000,0.0324,0.013523,0.002678,0.000431,0.002468
78071000,0.0324,0.013523,0.002678,0.000431,0.002586
78072000,0.0324,0.013523,0.002678,0.000431,0.002233
78073000,0.0324,0.013523,0.002678,0.000431,0.002821
78074000,0.0324,0.013523,0.002678,0.000431,0.002233
78075000,0.0324,0.013523,0.002678,0.000431,0.002586
78076000,0.0324,0.013523,0.002678,0.000431,0.002116
78077000,0.0324,0.013523,0.002678,0.000431,0.002586
78078000,0.0324,0.013523,0.002678,0.000431,0.002586
78079000,0.0324,0.013523,0.002678,0.000431,0.002351
78080000,0.0324,0.013523,0.002678,0.000431,0.002703
78081000,0.0324,0.013523,0.002678,0.000431,0.002116
78082000,0.0324,0.013523,0.002678,0.000431,0.002703
78083000,0.0324,0.013523,0.002678,0.000431,0.002586
78084000,0.0324,0.013523,0.002678,0.000431,0.002116
78085000,0.0324,0.013523,0.002678,0.000431,0.002586
78086000,0.0324,0.013523,0.002678,0.000431,0.002468
78087000,0.0324,0.013523,0.002678,0.000431,0.002468
78088000,0.0324,0.013523,0.002678,0.000431,0.002351
78089000,0.0324,0.013523,0.002678,0.000431,0.002351
78090000,0.0324,0.013523,0.002678,0.000431,0.002586
78091000,0.0324,0.013523,0.002678,0.000431,0.002586
78092000,0.0324,0.013523,0.002678,0.000431,0.002233
78093000,0.0324,0.013523,0.002678,0.000431,0.002703
78094000,0.0324,0.013523,0.002678,0.000431,0.002351
78095000,0.0324,0.013523,0.002678,0.000431,0.002586
78096000,0.0324,0.013523,0.002678,0.000431,0.002233
78097000,0.0324,0.013523,0.002678,0.000431,0.002468
78098000,0.0324,0.013523,0.002678,0.000431,0.002586
78099000,0.0324,0.013523,0.002678,0.000431,0.002233
78100000,0.0324,0.013523,0.002678,0.000431,0.002821
78101000,0.0324,0.013523,0.002678,0.000431,0.002233
78102000,0.0324,0.013523,0.002678,0.000431,0.002586
78103000,0.0324,0.013523,0.002678,0.000431,0.002468
78104000,0.0324,0.013523,0.002678,0.000431,0.002233
78105000,0.0324,0.013523,0.002678,0.000431,0.002586
78106000,0.0324,0.013523,0.002678,0.000431,0.002586
78107000,0.0324,0.013523,0.002678,0.000431,0.002116
78108000,0.0324,0.013523,0.002678,0.000431,0.002586
78109000,0.0324,0.013523,0.002678,0.000431,0.002351
78110000,0.0324,0.013523,0.002678,0.000431,0.002586
78111000,0.0324,0.013523,0.002678,0.000431,0.002586
78112000,0.0324,0.013523,0.002678,0.000431,0.002116
78113000,0.0324,0.013523,0.002678,0.000431,0.002821
78114000,0.0324,0.013523,0.002678,0.000431,0.002116
78115000,0.0324,0.013523,0.002678,0.000431,0.002586
78116000,0.0324,0.013523,0.002678,0.000431,0.002586
78117000,0.0324,0.013523,0.002678,0.000431,0.002351
78118000,0.0324,0.013523,0.002678,0.000431,0.002468
78119000,0.0324,0.013523,0.002678,0.000431,0.002351
78120000,0.0324,0.013523,0.002678,0.000431,0.002703
78121000,0.0324,0.013523,0.002678,0.000431,0.002233
78122000,0.0324,0.013523,0.002678,0.000431,0.002586
78123000,0.0324,0.013523,0.002678,0.000431,0.002468
78124000,0.0324,0.013523,0.002678,0.000431,0.002468
78125000,0.0324,0.013523,0.002678,0.000431,0.002468
78126000,0.0324,0.013523,0.002678,0.000431,0.002351
78127000,0.0324,0.013523,0.002678,0.000431,0.002351
78128000,0.0324,0.013523,0.002678,0.000431,0.002586
78129000,0.0324,0.013523,0.002678,0.000431,0.002351
78130000,0.0324,0.013523,0.002678,0.000431,0.002351
78131000,0.0324,0.013523,0.002678,0.000431,0.002821
78132000,0.0324,0.013523,0.002678,0.000431,0.002116
78133000,0.0324,0.013523,0.002678,0.000431,0.002703
78134000,0.0324,0.013523,0.002678,0.000431,0.002233
78135000,0.0324,0.013523,0.002678,0.000431,0.002586
78136000,0.0324,0.013523,0.002678,0.000431,0.002586
78137000,0.0324,0.013523,0.002678,0.000431,0.002233
78138000,0.0324,0.013523,0.002678,0.000431,0.002468
78139000,0.0324,0.013523,0.002678,0.000431,0.002586
78140000,0.0324,0.013523,0.002678,0.000431,0.002468
78141000,0.0324,0.013523,0.002678,0.000431,0.002468
78142000,0.0324,0.013523,0.002678,0.000431,0.073220
78143000,0.0324,0.013523,0.002678,0.000431,0.539572
78144000,0.0324,0.013523,0.002678,0.000431,0.572245
78145000,0.0324,0.013523,0.002678,0.000431,0.132572
78146000,0.0324,0.013523,0.002678,0.000431,0.133277
78147000,0.0324,0.013523,0.002678,0.000431,0.538867
78148000,0.0324,0.013523,0.002678,0.000431,0.238582
78149000,0.0324,0.013523,0.002678,0.000431,0.239757
78150000,0.0324,0.013523,0.002678,0.000431,0.303810
78151000,0.0324,0.013523,0.002678,0.000431,0.151141
78152000,0.0324,0.013523,0.002678,0.000431,0.137978
78153000,0.0324,0.013523,0.002678,0.000431,0.139623
78154000,0.0324,0.013523,0.002678,0.000431,0.270197
78155000,0.0324,0.013523,0.002678,0.000431,0.348471
78156000,0.0324,0.013523,0.002678,0.000431,0.078391
78157000,0.0324,0.013523,0.002678,0.000431,0.062290
78158000,0.0324,0.013523,0.002678,0.000431,0.047716
78159000,0.0324,0.013523,0.002678,0.000431,0.045954
78160000,0.0324,0.013523,0.002678,0.000431,0.036199
78161000,0.0324,0.013523,0.002678,0.000431,0.033496
78162000,0.0324,0.013523,0.002678,0.000431,0.030205
78163000,0.0324,0.013523,0.002678,0.000431,0.031733
78164000,0.0324,0.013523,0.002678,0.000431,0.023036
78165000,0.0324,0.013523,0.002678,0.000431,0.019040
78166000,0.0324,0.013523,0.002678,0.000431,0.018217
78167000,0.0324,0.013523,0.002678,0.000431,0.018805
78168000,0.0324,0.013523,0.002678,0.000431,0.011283
78169000,0.0324,0.013523,0.002678,0.000431,0.011518
78170000,0.0324,0.013523,0.002678,0.000431,0.010695
78171000,0.0324,0.013523,0.002678,0.000431,0.012928
78172000,0.0324,0.013523,0.002678,0.000431,0.009872
78173000,0.0324,0.013523,0.002678,0.000431,0.010225
78174000,0.0324,0.013523,0.002678,0.000431,0.009755
78175000,0.0324,0.013523,0.002678,0.000431,0.010107
78176000,0.0324,0.013523,0.002678,0.000431,0.009872
78177000,0.0324,0.013523,0.002678,0.000431,0.010342
78178000,0.0324,0.013523,0.002678,0.000431,0.009755
78179000,0.0324,0.013523,0.002678,0.000431,0.010107
78180000,0.0324,0.013523,0.002678,0.000431,0.012223
78181000,0.0324,0.013523,0.002678,0.000431,0.008815
78182000,0.0324,0.013523,0.002678,0.000431,0.007874
78183000,0.0324,0.013523,0.002678,0.000431,0.007169
78184000,0.0324,0.013523,0.002678,0.000431,0.007757
78185000,0.0324,0.013523,0.002678,0.000431,0.006817
78186000,0.0324,0.013523,0.002678,0.000431,0.007992
78187000,0.0324,0.013523,0.002678,0.000431,0.007757
78188000,0.0324,0.013523,0.002678,0.000431,0.007287
78189000,0.0324,0.013523,0.002678,0.000431,0.007757
78190000,0.0324,0.013523,0.002678,0.000431,0.006817
78191000,0.0324,0.013523,0.002678,0.000431,0.008109
78192000,0.0324,0.013523,0.002678,0.000431,0.007757
78193000,0.0324,0.013523,0.002678,0.000431,0.007287
78194000,0.0324,0.013523,0.002678,0.000431,0.007404
78195000,0.0324,0.013523,0.002678,0.000431,0.008697
78196000,0.0324,0.013523,0.002678,0.000431,0.008109
78197000,0.0324,0.013523,0.002678,0.000431,0.006347
78198000,0.0324,0.013523,0.002678,0.000431,0.007052
78199000,0.0324,0.013523,0.002678,0.000431,0.007169
78200000,0.0324,0.013523,0.002678,0.000431,0.004936
78201000,0.0324,0.013523,0.002678,0.000431,0.005289
78202000,0.0324,0.013523,0.002678,0.000431,0.007052
78203000,0.0324,0.013523,0.002678,0.000431,0.004349
78204000,0.0324,0.013523,0.002678,0.000431,0.004113
78205000,0.0324,0.013523,0.002678,0.000431,0.004349
78206000,0.0324,0.013523,0.002678,0.000431,0.004113
78207000,0.0324,0.013523,0.002678,0.000431,0.004349
78208000,0.0324,0.013523,0.002678,0.000431,0.004936
78209000,0.0324,0.013523,0.002678,0.000431,0.004231
78210000,0.0324,0.013523,0.002678,0.000431,0.003643
78211000,0.0324,0.013523,0.002678,0.000431,0.003408
78212000,0.0324,0.013523,0.002678,0.000431,0.003173
78213000,0.0324,0.013523,0.002678,0.000431,0.003408
78214000,0.0324,0.013523,0.002678,0.000431,0.003526
78215000,0.0324,0.013523,0.002678,0.000431,0.003526
78216000,0.0324,0.013523,0.002678,0.000431,0.003056
78217000,0.0324,0.013523,0.002678,0.000431,0.003643
78218000,0.0324,0.013523,0.002678,0.000431,0.003408
78219000,0.0324,0.013523,0.002678,0.000431,0.003173
78220000,0.0324,0.013523,0.002678,0.000431,0.003526
78221000,0.0324,0.013523,0.002678,0.000431,0.003408
78222000,0.0324,0.013523,0.002678,0.000431,0.003526
78223000,0.0324,0.013523,0.002678,0.000431,0.003291
78224000,0.0324,0.013523,0.002678,0.000431,0.003291
78225000,0.0324,0.013523,0.002678,0.000431,0.003643
78226000,0.0324,0.013523,0.002678,0.000431,0.003173
78227000,0.0324,0.013523,0.002678,0.000431,0.003526
78228000,0.0324,0.013523,0.002678,0.000431,0.003408
78229000,0.0324,0.013523,0.002678,0.000431,0.003408
78230000,0.0324,0.013523,0.002678,0.000431,0.003291
78231000,0.0324,0.013523,0.002678,0.000431,0.003408
78232000,0.0324,0.013523,0.002678,0.000431,0.003408
78233000,0.0324,0.013523,0.002678,0.000431,0.003291
78234000,0.0324,0.013523,0.002678,0.000431,0.003643
78235000,0.0324,0.013523,0.002678,0.000431,0.003056
78236000,0.0324,0.013523,0.002678,0.000431,0.003526
78237000,0.0324,0.013523,0.002678,0.000431,0.005171
78238000,0.0324,0.013523,0.002678,0.000431,0.003526
78239000,0.0324,0.013523,0.002678,0.000431,0.002703
78240000,0.0324,0.013523,0.002678,0.000431,0.001880
78241000,0.0324,0.013523,0.002678,0.000431,0.002938
78242000,0.0324,0.013523,0.002678,0.000431,0.000705
78243000,0.0324,0.013523,0.002678,0.000431,0.000940
78244000,0.0324,0.013523,0.002678,0.000431,0.000705
78245000,0.0324,0.013523,0.002678,0.000431,0.000940
78246000,0.0324,0.013523,0.002678,0.000431,0.000823
78247000,0.0324,0.013523,0.002678,0.000431,0.000823
78248000,0.0324,0.013523,0.002678,0.000431,0.000940
78249000,0.0324,0.013523,0.002678,0.000431,0.000705
78250000,0.0324,0.013523,0.002678,0.000431,0.000940
78251000,0.0324,0.013523,0.002678,0.000431,0.000823
78252000,0.0324,0.013523,0.002678,0.000431,0.000823
78253000,0.0324,0.013523,0.002678,0.000431,0.000823
78254000,0.0324,0.013523,0.002678,0.000431,0.000823
78255000,0.0324,0.013523,0.002678,0.000431,0.000823
78256000,0.0324,0.013523,0.002678,0.000431,0.000823
78257000,0.0324,0.013523,0.002678,0.000431,0.000940
78258000,0.0324,0.013523,0.002678,0.000431,0.000705
78259000,0.0324,0.013523,0.002678,0.000431,0.130691
78260000,0.0324,0.013523,0.002678,0.000431,0.525704
78261000,0.0324,0.013523,0.002678,0.000431,0.534048
78262000,0.0324,0.013523,0.002678,0.000431,0.133512
78263000,0.0324,0.013523,0.002678,0.000431,0.132572
78264000,0.0324,0.013523,0.002678,0.000431,0.591049
78265000,0.0324,0.013523,0.002678,0.000431,0.247279
78266000,0.0324,0.013523,0.002678,0.000431,0.299814
78267000,0.0324,0.013523,0.002678,0.000431,0.288062
78268000,0.0324,0.013523,0.002678,0.000431,0.143854
78269000,0.0324,0.013523,0.002678,0.000431,0.153374
78270000,0.0324,0.013523,0.002678,0.000431,0.145617
78271000,0.0324,0.013523,0.002678,0.000431,0.458007
78272000,0.0324,0.013523,0.002678,0.000431,0.089321
78273000,0.0324,0.013523,0.002678,0.000431,0.063113
78274000,0.0324,0.013523,0.002678,0.000431,0.052888
78275000,0.0324,0.013523,0.002678,0.000431,0.038432
78276000,0.0324,0.013523,0.002678,0.000431,0.036316
78277000,0.0324,0.013523,0.002678,0.000431,0.037021
78278000,0.0324,0.013523,0.002678,0.000431,0.033143
78279000,0.0324,0.013523,0.002678,0.000431,0.025269
78280000,0.0324,0.013523,0.002678,0.000431,0.021273
78281000,0.0324,0.013523,0.002678,0.000431,0.021743
78282000,0.0324,0.013523,0.002678,0.000431,0.021978
78283000,0.0324,0.013523,0.002678,0.000431,0.011048
78284000,0.0324,0.013523,0.002678,0.000431,0.012458
78285000,0.0324,0.013523,0.002678,0.000431,0.012105
78286000,0.0324,0.013523,0.002678,0.000431,0.012340
78287000,0.0324,0.013523,0.002678,0.000431,0.012811
78288000,0.0324,0.013523,0.002678,0.000431,0.010813
78289000,0.0324,0.013523,0.002678,0.000431,0.013516
78290000,0.0324,0.013523,0.002678,0.000431,0.008580
78291000,0.0324,0.013523,0.002678,0.000431,0.008227
78292000,0.0324,0.013523,0.002678,0.000431,0.008462
78293000,0.0324,0.013523,0.002678,0.000431,0.008815
78294000,0.0324,0.013523,0.002678,0.000431,0.008580
78295000,0.0324,0.013523,0.002678,0.000431,0.008462
78296000,0.0324,0.013523,0.002678,0.000431,0.007874
78297000,0.0324,0.013523,0.002678,0.000431,0.010578
78298000,0.0324,0.013523,0.002678,0.000431,0.007522
78299000,0.0324,0.013523,0.002678,0.000431,0.007287
78300000,0.0324,0.013523,0.002678,0.000431,0.007992
78301000,0.0324,0.013523,0.002678,0.000431,0.007169
78302000,0.0324,0.013523,0.002678,0.000431,0.008227
78303000,0.0324,0.013523,0.002678,0.000431,0.007169
78304000,0.0324,0.013523,0.002678,0.000431,0.007757
78305000,0.0324,0.013523,0.002678,0.000431,0.007757
78306000,0.0324,0.013523,0.002678,0.000431,0.007404
78307000,0.0324,0.013523,0.002678,0.000431,0.007757
78308000,0.0324,0.013523,0.002678,0.000431,0.007639
78309000,0.0324,0.013523,0.002678,0.000431,0.008697
78310000,0.0324,0.013523,0.002678,0.000431,0.006582
78311000,0.0324,0.013523,0.002678,0.000431,0.007052
78312000,0.0324,0.013523,0.002678,0.000431,0.006582
78313000,0.0324,0.013523,0.002678,0.000431,0.006699
78314000,0.0324,0.013523,0.002678,0.000431,0.007874
78315000,0.0324,0.013523,0.002678,0.000431,0.005759
78316000,0.0324,0.013523,0.002678,0.000431,0.006229
78317000,0.0324,0.013523,0.002678,0.000431,0.005876
78318000,0.0324,0.013523,0.002678,0.000431,0.006229
78319000,0.0324,0.013523,0.002678,0.000431,0.005876
78320000,0.0324,0.013523,0.002678,0.000431,0.006111
78321000,0.0324,0.013523,0.002678,0.000431,0.005994
78322000,0.0324,0.013523,0.002678,0.000431,0.005641
78323000,0.0324,0.013523,0.002678,0.000431,0.005994
78324000,0.0324,0.013523,0.002678,0.000431,0.005876
78325000,0.0324,0.013523,0.002678,0.000431,0.006464
78326000,0.0324,0.013523,0.002678,0.000431,0.005524
78327000,0.0324,0.013523,0.002678,0.000431,0.007874
78328000,0.0324,0.013523,0.002678,0.000431,0.005406
78329000,0.0324,0.013523,0.002678,0.000431,0.004936
78330000,0.0324,0.013523,0.002678,0.000431,0.004936
78331000,0.0324,0.013523,0.002678,0.000431,0.005289
78332000,0.0324,0.013523,0.002678,0.000431,0.005054
78333000,0.0324,0.013523,0.002678,0.000431,0.005054
78334000,0.0324,0.013523,0.002678,0.000431,0.005289
78335000,0.0324,0.013523,0.002678,0.000431,0.006582
78336000,0.0324,0.013523,0.002678,0.000431,0.004466
78337000,0.0324,0.013523,0.002678,0.000431,0.005759
78338000,0.0324,0.013523,0.002678,0.000431,0.003408
78339000,0.0324,0.013523,0.002678,0.000431,0.006817
78340000,0.0324,0.013523,0.002678,0.000431,0.002351
78341000,0.0324,0.013523,0.002678,0.000431,0.002703
78342000,0.0324,0.013523,0.002678,0.000431,0.002703
78343000,0.0324,0.013523,0.002678,0.000431,0.002468
78344000,0.0324,0.013523,0.002678,0.000431,0.002586
78345000,0.0324,0.013523,0.002678,0.000431,0.002351
78346000,0.0324,0.013523,0.002678,0.000431,0.002821
78347000,0.0324,0.013523,0.002678,0.000431,0.002468
78348000,0.0324,0.013523,0.002678,0.000431,0.002586
78349000,0.0324,0.013523,0.002678,0.000431,0.002468
78350000,0.0324,0.013523,0.002678,0.000431,0.002468
78351000,0.0324,0.013523,0.002678,0.000431,0.005289
78352000,0.0324,0.013523,0.002678,0.000431,0.001763
78353000,0.0324,0.013523,0.002678,0.000431,0.001880
78354000,0.0324,0.013523,0.002678,0.000431,0.001645
78355000,0.0324,0.013523,0.002678,0.000431,0.001763
78356000,0.0324,0.013523,0.002678,0.000431,0.001645
78357000,0.0324,0.013523,0.002678,0.000431,0.001763
78358000,0.0324,0.013523,0.002678,0.000431,0.001528
78359000,0.0324,0.013523,0.002678,0.000431,0.001880
78360000,0.0324,0.013523,0.002678,0.000431,0.001763
78361000,0.0324,0.013523,0.002678,0.000431,0.002938
78362000,0.0324,0.013523,0.002678,0.000431,0.000940
78363000,0.0324,0.013523,0.002678,0.000431,0.000705
78364000,0.0324,0.013523,0.002678,0.000431,0.000940
78365000,0.0324,0.013523,0.002678,0.000431,0.000823
78366000,0.0324,0.013523,0.002678,0.000431,0.000823
78367000,0.0324,0.013523,0.002678,0.000431,0.000940
78368000,0.0324,0.013523,0.002678,0.000431,0.000705
78369000,0.0324,0.013523,0.002678,0.000431,0.000940
78370000,0.0324,0.013523,0.002678,0.000431,0.000823
78371000,0.0324,0.013523,0.002678,0.000431,0.000823
78372000,0.0324,0.013523,0.002678,0.000431,0.000823
78373000,0.0324,0.013523,0.002678,0.000431,0.000823
78374000,0.0324,0.013523,0.002678,0.000431,0.000823
78375000,0.0324,0.013523,0.002678,0.000431,0.000823
78376000,0.0324,0.013523,0.002678,0.000431,0.000940
78377000,0.0324,0.013523,0.002678,0.000431,0.000823
78378000,0.0324,0.013523,0.002678,0.000431,0.000823
78379000,0.0324,0.013523,0.002678,0.000431,0.000823
78380000,0.0324,0.013523,0.002678,0.000431,0.000823
78381000,0.0324,0.013523,0.002678,0.000431,0.000823
78382000,0.0324,0.013523,0.002678,0.000431,0.000823
78383000,0.0324,0.013523,0.002678,0.000431,0.000823
78384000,0.0324,0.013523,0.002678,0.000431,0.000823
78385000,0.0324,0.013523,0.002678,0.000431,0.000940
78386000,0.0324,0.013523,0.002678,0.000431,0.000823
78387000,0.0324,0.013523,0.002678,0.000431,0.000823
78388000,0.0324,0.013523,0.002678,0.000431,0.000705
78389000,0.0324,0.013523,0.002678,0.000431,0.000940
78390000,0.0324,0.013523,0.002678,0.000431,0.000940
78391000,0.0324,0.013523,0.002678,0.000431,0.000823
78392000,0.0324,0.013523,0.002678,0.000431,0.000823
78393000,0.0324,0.013523,0.002678,0.000431,0.000940
78394000,0.0324,0.013523,0.002678,0.000431,0.000823
78395000,0.0324,0.013523,0.002678,0.000431,0.000940
78396000,0.0324,0.013523,0.002678,0.000431,0.071927
78397000,0.0324,0.013523,0.002678,0.000431,0.553558
78398000,0.0324,0.013523,0.002678,0.000431,0.560022
78399000,0.0324,0.013523,0.002678,0.000431,0.132924
78400000,0.0324,0.013523,0.002678,0.000431,0.133159
78401000,0.0324,0.013523,0.002678,0.000431,0.550032
78402000,0.0324,0.013523,0.002678,0.000431,0.239640
78403000,0.0324,0.013523,0.002678,0.000431,0.274781
78404000,0.0324,0.013523,0.002678,0.000431,0.298757
78405000,0.0324,0.013523,0.002678,0.000431,0.139271
78406000,0.0324,0.013523,0.002678,0.000431,0.153257
78407000,0.0324,0.013523,0.002678,0.000431,0.100369
78408000,0.0324,0.013523,0.002678,0.000431,0.386080
78409000,0.0324,0.013523,0.002678,0.000431,0.210375
78410000,0.0324,0.013523,0.002678,0.000431,0.045718
78411000,0.0324,0.013523,0.002678,0.000431,0.035376
78412000,0.0324,0.013523,0.002678,0.000431,0.029029
78413000,0.0324,0.013523,0.002678,0.000431,0.030557
78414000,0.0324,0.013523,0.002678,0.000431,0.024916
78415000,0.0324,0.013523,0.002678,0.000431,0.026209
78416000,0.0324,0.013523,0.002678,0.000431,0.018334
78417000,0.0324,0.013523,0.002678,0.000431,0.019040
78418000,0.0324,0.013523,0.002678,0.000431,0.016454
78419000,0.0324,0.013523,0.002678,0.000431,0.017747
78420000,0.0324,0.013523,0.002678,0.000431,0.015161
78421000,0.0324,0.013523,0.002678,0.000431,0.018217
78422000,0.0324,0.013523,0.002678,0.000431,0.017394
78423000,0.0324,0.013523,0.002678,0.000431,0.012693
78424000,0.0324,0.013523,0.002678,0.000431,0.014103
78425000,0.0324,0.013523,0.002678,0.000431,0.013163
78426000,0.0324,0.013523,0.002678,0.000431,0.011048
78427000,0.0324,0.013523,0.002678,0.000431,0.009755
78428000,0.0324,0.013523,0.002678,0.000431,0.010578
78429000,0.0324,0.013523,0.002678,0.000431,0.008697
78430000,0.0324,0.013523,0.002678,0.000431,0.008109
78431000,0.0324,0.013523,0.002678,0.000431,0.008462
78432000,0.0324,0.013523,0.002678,0.000431,0.008227
78433000,0.0324,0.013523,0.002678,0.000431,0.008815
78434000,0.0324,0.013523,0.002678,0.000431,0.007874
78435000,0.0324,0.013523,0.002678,0.000431,0.008697
78436000,0.0324,0.013523,0.002678,0.000431,0.008345
78437000,0.0324,0.013523,0.002678,0.000431,0.008580
78438000,0.0324,0.013523,0.002678,0.000431,0.007992
78439000,0.0324,0.013523,0.002678,0.000431,0.008580
78440000,0.0324,0.013523,0.002678,0.000431,0.008227
78441000,0.0324,0.013523,0.002678,0.000431,0.009402
78442000,0.0324,0.013523,0.002678,0.000431,0.009755
78443000,0.0324,0.013523,0.002678,0.000431,0.006111
78444000,0.0324,0.013523,0.002678,0.000431,0.006699
78445000,0.0324,0.013523,0.002678,0.000431,0.006582
78446000,0.0324,0.013523,0.002678,0.000431,0.006464
78447000,0.0324,0.013523,0.002678,0.000431,0.006699
78448000,0.0324,0.013523,0.002678,0.000431,0.007052
78449000,0.0324,0.013523,0.002678,0.000431,0.006464
78450000,0.0324,0.013523,0.002678,0.000431,0.008697
78451000,0.0324,0.013523,0.002678,0.000431,0.005641
78452000,0.0324,0.013523,0.002678,0.000431,0.005876
78453000,0.0324,0.013523,0.002678,0.000431,0.005994
78454000,0.0324,0.013523,0.002678,0.000431,0.006699
78455000,0.0324,0.013523,0.002678,0.000431,0.005054
78456000,0.0324,0.013523,0.002678,0.000431,0.005171
78457000,0.0324,0.013523,0.002678,0.000431,0.005171
78458000,0.0324,0.013523,0.002678,0.000431,0.004701
78459000,0.0324,0.013523,0.002678,0.000431,0.004936
78460000,0.0324,0.013523,0.002678,0.000431,0.005171
78461000,0.0324,0.013523,0.002678,0.000431,0.007052
78462000,0.0324,0.013523,0.002678,0.000431,0.003643
78463000,0.0324,0.013523,0.002678,0.000431,0.004231
78464000,0.0324,0.013523,0.002678,0.000431,0.004113
78465000,0.0324,0.013523,0.002678,0.000431,0.004231
78466000,0.0324,0.013523,0.002678,0.000431,0.004113
78467000,0.0324,0.013523,0.002678,0.000431,0.003761
78468000,0.0324,0.013523,0.002678,0.000431,0.004701
78469000,0.0324,0.013523,0.002678,0.000431,0.003761
78470000,0.0324,0.013523,0.002678,0.000431,0.003996
78471000,0.0324,0.013523,0.002678,0.000431,0.004466
78472000,0.0324,0.013523,0.002678,0.000431,0.004231
78473000,0.0324,0.013523,0.002678,0.000431,0.004936
78474000,0.0324,0.013523,0.002678,0.000431,0.002703
78475000,0.0324,0.013523,0.002678,0.000431,0.002703
78476000,0.0324,0.013523,0.002678,0.000431,0.002468
78477000,0.0324,0.013523,0.002678,0.000431,0.002351
78478000,0.0324,0.013523,0.002678,0.000431,0.002703
78479000,0.0324,0.013523,0.002678,0.000431,0.002586
78480000,0.0324,0.013523,0.002678,0.000431,0.002468
78481000,0.0324,0.013523,0.002678,0.000431,0.002468
78482000,0.0324,0.013523,0.002678,0.000431,0.002586
78483000,0.0324,0.013523,0.002678,0.000431,0.002586
78484000,0.0324,0.013523,0.002678,0.000431,0.002468
78485000,0.0324,0.013523,0.002678,0.000431,0.002468
78486000,0.0324,0.013523,0.002678,0.000431,0.002703
78487000,0.0324,0.013523,0.002678,0.000431,0.002468
78488000,0.0324,0.013523,0.002678,0.000431,0.002351
78489000,0.0324,0.013523,0.002678,0.000431,0.002586
78490000,0.0324,0.013523,0.002678,0.000431,0.002586
78491000,0.0324,0.013523,0.002678,0.000431,0.002468
78492000,0.0324,0.013523,0.002678,0.000431,0.002468
78493000,0.0324,0.013523,0.002678,0.000431,0.002821
78494000,0.0324,0.013523,0.002678,0.000431,0.002351
78495000,0.0324,0.013523,0.002678,0.000431,0.002468
78496000,0.0324,0.013523,0.002678,0.000431,0.002468
78497000,0.0324,0.013523,0.002678,0.000431,0.002821
78498000,0.0324,0.013523,0.002678,0.000431,0.002351
78499000,0.0324,0.013523,0.002678,0.000431,0.002468
78500000,0.0324,0.013523,0.002678,0.000431,0.002703
78501000,0.0324,0.013523,0.002678,0.000431,0.002468
78502000,0.0324,0.013523,0.002678,0.000431,0.002351
78503000,0.0324,0.013523,0.002678,0.000431,0.002703
78504000,0.0324,0.013523,0.002678,0.000431,0.002586
78505000,0.0324,0.013523,0.002678,0.000431,0.002351
78506000,0.0324,0.013523,0.002678,0.000431,0.002586
78507000,0.0324,0.013523,0.002678,0.000431,0.002586
78508000,0.0324,0.013523,0.002678,0.000431,0.002586
78509000,0.0324,0.013523,0.002678,0.000431,0.002351
78510000,0.0324,0.013523,0.002678,0.000431,0.002821
78511000,0.0324,0.013523,0.002678,0.000431,0.002351
78512000,0.0324,0.013523,0.002678,0.000431,0.002586
78513000,0.0324,0.013523,0.002678,0.000431,0.002351
78514000,0.0324,0.013523,0.002678,0.000431,0.002703
78515000,0.0324,0.013523,0.002678,0.000431,0.002468
78516000,0.0324,0.013523,0.002678,0.000431,0.002586
78517000,0.0324,0.013523,0.002678,0.000431,0.002468
78518000,0.0324,0.013523,0.002678,0.000431,0.004701
78519000,0.0324,0.013523,0.002678,0.000431,0.001645
78520000,0.0324,0.013523,0.002678,0.000431,0.001528
78521000,0.0324,0.013523,0.002678,0.000431,0.001763
78522000,0.0324,0.013523,0.002678,0.000431,0.001645
78523000,0.0324,0.013523,0.002678,0.000431,0.001645
78524000,0.0324,0.013523,0.002678,0.000431,0.001645
78525000,0.0324,0.013523,0.002678,0.000431,0.001645
78526000,0.0324,0.013523,0.002678,0.000431,0.001645
78527000,0.0324,0.013523,0.002678,0.000431,0.001645
78528000,0.0324,0.013523,0.002678,0.000431,0.001645
78529000,0.0324,0.013523,0.002678,0.000431,0.001880
78530000,0.0324,0.013523,0.002678,0.000431,0.001410
78531000,0.0324,0.013523,0.002678,0.000431,0.001645
78532000,0.0324,0.013523,0.002678,0.000431,0.001763
78533000,0.0324,0.013523,0.002678,0.000431,0.001528
78534000,0.0324,0.013523,0.002678,0.000431,0.001645
78535000,0.0324,0.013523,0.002678,0.000431,0.001645
78536000,0.0324,0.013523,0.002678,0.000431,0.001880
78537000,0.0324,0.013523,0.002678,0.000431,0.001410
78538000,0.0324,0.013523,0.002678,0.000431,0.001645
78539000,0.0324,0.013523,0.002678,0.000431,0.001880
78540000,0.0324,0.013523,0.002678,0.000431,0.001645
78541000,0.0324,0.013523,0.002678,0.000431,0.001410
78542000,0.0324,0.013523,0.002678,0.000431,0.001645
78543000,0.0324,0.013523,0.002678,0.000431,0.001880
78544000,0.0324,0.013523,0.002678,0.000431,0.001645
78545000,0.0324,0.013523,0.002678,0.000431,0.001410
78546000,0.0324,0.013523,0.002678,0.000431,0.001880
78547000,0.0324,0.013523,0.002678,0.000431,0.001645
78548000,0.0324,0.013523,0.002678,0.000431,0.001645
78549000,0.0324,0.013523,0.002678,0.000431,0.001528
78550000,0.0324,0.013523,0.002678,0.000431,0.001763
78551000,0.0324,0.013523,0.002678,0.000431,0.001645
78552000,0.0324,0.013523,0.002678,0.000431,0.001645
78553000,0.0324,0.013523,0.002678,0.000431,0.001645
78554000,0.0324,0.013523,0.002678,0.000431,0.001645
78555000,0.0324,0.013523,0.002678,0.000431,0.001645
78556000,0.0324,0.013523,0.002678,0.000431,0.001645
78557000,0.0324,0.013523,0.002678,0.000431,0.001645
78558000,0.0324,0.013523,0.002678,0.000431,0.001645
78559000,0.0324,0.013523,0.002678,0.000431,0.001645
78560000,0.0324,0.013523,0.002678,0.000431,0.001645
78561000,0.0324,0.013523,0.002678,0.000431,0.001763
78562000,0.0324,0.013523,0.002678,0.000431,0.001528
78563000,0.0324,0.013523,0.002678,0.000431,0.001645
78564000,0.0324,0.013523,0.002678,0.000431,0.001645
78565000,0.0324,0.013523,0.002678,0.000431,0.001645
78566000,0.0324,0.013523,0.002678,0.000431,0.001528
78567000,0.0324,0.013523,0.002678,0.000431,0.001763
78568000,0.0324,0.013523,0.002678,0.000431,0.001880
78569000,0.0324,0.013523,0.002678,0.000431,0.001410
78570000,0.0324,0.013523,0.002678,0.000431,0.001645
78571000,0.0324,0.013523,0.002678,0.000431,0.001645
78572000,0.0324,0.013523,0.002678,0.000431,0.001880
78573000,0.0324,0.013523,0.002678,0.000431,0.001410
78574000,0.0324,0.013523,0.002678,0.000431,0.001645
78575000,0.0324,0.013523,0.002678,0.000431,0.001880
78576000,0.0324,0.013523,0.002678,0.000431,0.001645
78577000,0.0324,0.013523,0.002678,0.000431,0.001410
78578000,0.0324,0.013523,0.002678,0.000431,0.001763
78579000,0.0324,0.013523,0.002678,0.000431,0.001763
78580000,0.0324,0.013523,0.002678,0.000431,0.001645
78581000,0.0324,0.013523,0.002678,0.000431,0.001410
78582000,0.0324,0.013523,0.002678,0.000431,0.001880
78583000,0.0324,0.013523,0.002678,0.000431,0.001645
78584000,0.0324,0.013523,0.002678,0.000431,0.001645
78585000,0.0324,0.013523,0.002678,0.000431,0.001645
78586000,0.0324,0.013523,0.002678,0.000431,0.001645
78587000,0.0324,0.013523,0.002678,0.000431,0.001645
78588000,0.0324,0.013523,0.002678,0.000431,0.001410
78589000,0.0324,0.013523,0.002678,0.000431,0.001880
78590000,0.0324,0.013523,0.002678,0.000431,0.001645
78591000,0.0324,0.013523,0.002678,0.000431,0.003173
78592000,0.0324,0.013523,0.002678,0.000431,0.392544
78593000,0.0324,0.013523,0.002678,0.000431,0.670028
78594000,0.0324,0.013523,0.002678,0.000431,0.135040
78595000,0.0324,0.013523,0.002678,0.000431,0.132572
78596000,0.0324,0.013523,0.002678,0.000431,0.151729
78597000,0.0324,0.013523,0.002678,0.000431,0.609031
78598000,0.0324,0.013523,0.002678,0.000431,0.283360
78599000,0.0324,0.013523,0.002678,0.000431,0.251393
78600000,0.0324,0.013523,0.002678,0.000431,0.238700
78601000,0.0324,0.013523,0.002678,0.000431,0.140446
78602000,0.0324,0.013523,0.002678,0.000431,0.165480
78603000,0.0324,0.013523,0.002678,0.000431,0.104365
78604000,0.0324,0.013523,0.002678,0.000431,0.475754
78605000,0.0324,0.013523,0.002678,0.000431,0.137626
78606000,0.0324,0.013523,0.002678,0.000431,0.085561
78607000,0.0324,0.013523,0.002678,0.000431,0.068049
78608000,0.0324,0.013523,0.002678,0.000431,0.058882
78609000,0.0324,0.013523,0.002678,0.000431,0.051595
78610000,0.0324,0.013523,0.002678,0.000431,0.047599
78611000,0.0324,0.013523,0.002678,0.000431,0.045718
78612000,0.0324,0.013523,0.002678,0.000431,0.040430
78613000,0.0324,0.013523,0.002678,0.000431,0.036669
78614000,0.0324,0.013523,0.002678,0.000431,0.038197
78615000,0.0324,0.013523,0.002678,0.000431,0.034318
78616000,0.0324,0.013523,0.002678,0.000431,0.030557
78617000,0.0324,0.013523,0.002678,0.000431,0.029382
78618000,0.0324,0.013523,0.002678,0.000431,0.025974
78619000,0.0324,0.013523,0.002678,0.000431,0.022800
78620000,0.0324,0.013523,0.002678,0.000431,0.024798
78621000,0.0324,0.013523,0.002678,0.000431,0.021978
78622000,0.0324,0.013523,0.002678,0.000431,0.020450
78623000,0.0324,0.013523,0.002678,0.000431,0.017277
78624000,0.0324,0.013523,0.002678,0.000431,0.019275
78625000,0.0324,0.013523,0.002678,0.000431,0.017982
78626000,0.0324,0.013523,0.002678,0.000431,0.016454
78627000,0.0324,0.013523,0.002678,0.000431,0.016219
78628000,0.0324,0.013523,0.002678,0.000431,0.019275
78629000,0.0324,0.013523,0.002678,0.000431,0.013751
78630000,0.0324,0.013523,0.002678,0.000431,0.019040
78631000,0.0324,0.013523,0.002678,0.000431,0.008345
78632000,0.0324,0.013523,0.002678,0.000431,0.008227
78633000,0.0324,0.013523,0.002678,0.000431,0.008580
78634000,0.0324,0.013523,0.002678,0.000431,0.008109
78635000,0.0324,0.013523,0.002678,0.000431,0.008462
78636000,0.0324,0.013523,0.002678,0.000431,0.008345
78637000,0.0324,0.013523,0.002678,0.000431,0.008227
78638000,0.0324,0.013523,0.002678,0.000431,0.008932
78639000,0.0324,0.013523,0.002678,0.000431,0.007992
78640000,0.0324,0.013523,0.002678,0.000431,0.008345
78641000,0.0324,0.013523,0.002678,0.000431,0.008345
78642000,0.0324,0.013523,0.002678,0.000431,0.009637
78643000,0.0324,0.013523,0.002678,0.000431,0.008697
78644000,0.0324,0.013523,0.002678,0.000431,0.007404
78645000,0.0324,0.013523,0.002678,0.000431,0.007639
78646000,0.0324,0.013523,0.002678,0.000431,0.007287
78647000,0.0324,0.013523,0.002678,0.000431,0.008109
78648000,0.0324,0.013523,0.002678,0.000431,0.007287
78649000,0.0324,0.013523,0.002678,0.000431,0.010460
78650000,0.0324,0.013523,0.002678,0.000431,0.006582
78651000,0.0324,0.013523,0.002678,0.000431,0.006699
78652000,0.0324,0.013523,0.002678,0.000431,0.007169
78653000,0.0324,0.013523,0.002678,0.000431,0.011048
78654000,0.0324,0.013523,0.002678,0.000431,0.005289
78655000,0.0324,0.013523,0.002678,0.000431,0.004113
78656000,0.0324,0.013523,0.002678,0.000431,0.004231
78657000,0.0324,0.013523,0.002678,0.000431,0.004349
78658000,0.0324,0.013523,0.002678,0.000431,0.004936
78659000,0.0324,0.013523,0.002678,0.000431,0.004231
78660000,0.0324,0.013523,0.002678,0.000431,0.003291
78661000,0.0324,0.013523,0.002678,0.000431,0.003526
78662000,0.0324,0.013523,0.002678,0.000431,0.003173
78663000,0.0324,0.013523,0.002678,0.000431,0.003408
78664000,0.0324,0.013523,0.002678,0.000431,0.003291
78665000,0.0324,0.013523,0.002678,0.000431,0.003408
78666000,0.0324,0.013523,0.002678,0.000431,0.003408
78667000,0.0324,0.013523,0.002678,0.000431,0.003291
78668000,0.0324,0.013523,0.002678,0.000431,0.003526
78669000,0.0324,0.013523,0.002678,0.000431,0.002938
78670000,0.0324,0.013523,0.002678,0.000431,0.003643
78671000,0.0324,0.013523,0.002678,0.000431,0.003526
78672000,0.0324,0.013523,0.002678,0.000431,0.003056
78673000,0.0324,0.013523,0.002678,0.000431,0.003643
78674000,0.0324,0.013523,0.002678,0.000431,0.002938
78675000,0.0324,0.013523,0.002678,0.000431,0.003761
78676000,0.0324,0.013523,0.002678,0.000431,0.003291
78677000,0.0324,0.013523,0.002678,0.000431,0.003291
78678000,0.0324,0.013523,0.002678,0.000431,0.003291
78679000,0.0324,0.013523,0.002678,0.000431,0.003291
78680000,0.0324,0.013523,0.002678,0.000431,0.003408
78681000,0.0324,0.013523,0.002678,0.000431,0.003408
78682000,0.0324,0.013523,0.002678,0.000431,0.003408
78683000,0.0324,0.013523,0.002678,0.000431,0.003173
78684000,0.0324,0.013523,0.002678,0.000431,0.003291
78685000,0.0324,0.013523,0.002678,0.000431,0.003643
78686000,0.0324,0.013523,0.002678,0.000431,0.003291
78687000,0.0324,0.013523,0.002678,0.000431,0.003408
78688000,0.0324,0.013523,0.002678,0.000431,0.003408
78689000,0.0324,0.013523,0.002678,0.000431,0.003291
78690000,0.0324,0.013523,0.002678,0.000431,0.003526
78691000,0.0324,0.013523,0.002678,0.000431,0.003408
78692000,0.0324,0.013523,0.002678,0.000431,0.005759
78693000,0.0324,0.013523,0.002678,0.000431,0.002821
78694000,0.0324,0.013523,0.002678,0.000431,0.002233
78695000,0.0324,0.013523,0.002678,0.000431,0.002703
78696000,0.0324,0.013523,0.002678,0.000431,0.002703
78697000,0.0324,0.013523,0.002678,0.000431,0.004936
78698000,0.0324,0.013523,0.002678,0.000431,0.001880
78699000,0.0324,0.013523,0.002678,0.000431,0.001410
78700000,0.0324,0.013523,0.002678,0.000431,0.001880
78701000,0.0324,0.013523,0.002678,0.000431,0.001763
78702000,0.0324,0.013523,0.002678,0.000431,0.001528
78703000,0.0324,0.013523,0.002678,0.000431,0.001880
78704000,0.0324,0.013523,0.002678,0.000431,0.001410
78705000,0.0324,0.013523,0.002678,0.000431,0.001880
78706000,0.0324,0.013523,0.002678,0.000431,0.001645
78707000,0.0324,0.013523,0.002678,0.000431,0.001645
78708000,0.0324,0.013523,0.002678,0.000431,0.001763
78709000,0.0324,0.013523,0.002678,0.000431,0.001528
78710000,0.0324,0.013523,0.002678,0.000431,0.001763
78711000,0.0324,0.013523,0.002678,0.000431,0.001645
78712000,0.0324,0.013523,0.002678,0.000431,0.001763
78713000,0.0324,0.013523,0.002678,0.000431,0.001528
78714000,0.0324,0.013523,0.002678,0.000431,0.001763
78715000,0.0324,0.013523,0.002678,0.000431,0.001645
78716000,0.0324,0.013523,0.002678,0.000431,0.003408
78717000,0.0324,0.013523,0.002678,0.000431,0.000705
78718000,0.0324,0.013523,0.002678,0.000431,0.000940
78719000,0.0324,0.013523,0.002678,0.000431,0.000940
78720000,0.0324,0.013523,0.002678,0.000431,0.000705
78721000,0.0324,0.013523,0.002678,0.000431,0.000940
78722000,0.0324,0.013523,0.002678,0.000431,0.000705
78723000,0.0324,0.013523,0.002678,0.000431,0.000940
78724000,0.0324,0.013523,0.002678,0.000431,0.000940
78725000,0.0324,0.013523,0.002678,0.000431,0.000705
78726000,0.0324,0.013523,0.002678,0.000431,0.000940
78727000,0.0324,0.013523,0.002678,0.000431,0.000705
78728000,0.0324,0.013523,0.002678,0.000431,0.000940
78729000,0.0324,0.013523,0.002678,0.000431,0.000823
78730000,0.0324,0.013523,0.002678,0.000431,0.000823
78731000,0.0324,0.013523,0.002678,0.000431,0.000823
78732000,0.0324,0.013523,0.002678,0.000431,0.000823
78733000,0.0324,0.013523,0.002678,0.000431,0.000940
78734000,0.0324,0.013523,0.002678,0.000431,0.000705
78735000,0.0324,0.013523,0.002678,0.000431,0.000940
78736000,0.0324,0.013523,0.002678,0.000431,0.000823
78737000,0.0324,0.013523,0.002678,0.000431,0.000823
78738000,0.0324,0.013523,0.002678,0.000431,0.000823
78739000,0.0324,0.013523,0.002678,0.000431,0.000823
78740000,0.0324,0.013523,0.002678,0.000431,0.000940
78741000,0.0324,0.013523,0.002678,0.000431,0.000705
78742000,0.0324,0.013523,0.002678,0.000431,0.000823
78743000,0.0324,0.013523,0.002678,0.000431,0.000940
78744000,0.0324,0.013523,0.002678,0.000431,0.000823
78745000,0.0324,0.013523,0.002678,0.000431,0.000823
78746000,0.0324,0.013523,0.002678,0.000431,0.000823
78747000,0.0324,0.013523,0.002678,0.000431,0.000823
78748000,0.0324,0.013523,0.002678,0.000431,0.000823
78749000,0.0324,0.013523,0.002678,0.000431,0.000940
78750000,0.0324,0.013523,0.002678,0.000431,0.000705
78751000,0.0324,0.013523,0.002678,0.000431,0.000940
78752000,0.0324,0.013523,0.002678,0.000431,0.000705
78753000,0.0324,0.013523,0.002678,0.000431,0.000940
78754000,0.0324,0.013523,0.002678,0.000431,0.000823
78755000,0.0324,0.013523,0.002678,0.000431,0.000823
78756000,0.0324,0.013523,0.002678,0.000431,0.000940
78757000,0.0324,0.013523,0.002678,0.000431,0.000705
78758000,0.0324,0.013523,0.002678,0.000431,0.000940
78759000,0.0324,0.013523,0.002678,0.000431,0.000823
78760000,0.0324,0.013523,0.002678,0.000431,0.000823
78761000,0.0324,0.013523,0.002678,0.000431,0.000823
78762000,0.0324,0.013523,0.002678,0.000431,0.000823
78763000,0.0324,0.013523,0.002678,0.000431,0.000940
78764000,0.0324,0.013523,0.002678,0.000431,0.000705
78765000,0.0324,0.013523,0.002678,0.000431,0.000940
78766000,0.0324,0.013523,0.002678,0.000431,0.000823
78767000,0.0324,0.013523,0.002678,0.000431,0.000823
78768000,0.0324,0.013523,0.002678,0.000431,0.000823
78769000,0.0324,0.013523,0.002678,0.000431,0.000823
78770000,0.0324,0.013523,0.002678,0.000431,0.000705
78771000,0.0324,0.013523,0.002678,0.000431,0.000940
78772000,0.0324,0.013523,0.002678,0.000431,0.000940
78773000,0.0324,0.013523,0.002678,0.000431,0.000705
78774000,0.0324,0.013523,0.002678,0.000431,0.000940
78775000,0.0324,0.013523,0.002678,0.000431,0.000705
78776000,0.0324,0.013523,0.002678,0.000431,0.000940
78777000,0.0324,0.013523,0.002678,0.000431,0.000940
78778000,0.0324,0.013523,0.002678,0.000431,0.000705
78779000,0.0324,0.013523,0.002678,0.000431,0.000940
78780000,0.0324,0.013523,0.002678,0.000431,0.000705
78781000,0.0324,0.013523,0.002678,0.000431,0.000940
78782000,0.0324,0.013523,0.002678,0.000431,0.000823
78783000,0.0324,0.013523,0.002678,0.000431,0.000823
78784000,0.0324,0.013523,0.002678,0.000431,0.000823
78785000,0.0324,0.013523,0.002678,0.000431,0.000823
78786000,0.0324,0.013523,0.002678,0.000431,0.000940
78787000,0.0324,0.013523,0.002678,0.000431,0.000705
78788000,0.0324,0.013523,0.002678,0.000431,0.000940
78789000,0.0324,0.013523,0.002678,0.000431,0.000823
78790000,0.0324,0.013523,0.002678,0.000431,0.000823
78791000,0.0324,0.013523,0.002678,0.000431,0.000823
78792000,0.0324,0.013523,0.002678,0.000431,0.000823
78793000,0.0324,0.013523,0.002678,0.000431,0.000823
78794000,0.0324,0.013523,0.002678,0.000431,0.000823
78795000,0.0324,0.013523,0.002678,0.000431,0.000823
78796000,0.0324,0.013523,0.002678,0.000431,0.000823
78797000,0.0324,0.013523,0.002678,0.000431,0.000940
78798000,0.0324,0.013523,0.002678,0.000431,0.000823
78799000,0.0324,0.013523,0.002678,0.000431,0.000823
78800000,0.0324,0.013523,0.002678,0.000431,0.000705
78801000,0.0324,0.013523,0.002678,0.000431,0.000940
78802000,0.0324,0.013523,0.002678,0.000431,0.000940
78803000,0.0324,0.013523,0.002678,0.000431,0.000705
78804000,0.0324,0.013523,0.002678,0.000431,0.000940
78805000,0.0324,0.013523,0.002678,0.000431,0.000705
78806000,0.0324,0.013523,0.002678,0.000431,0.000940
78807000,0.0324,0.013523,0.002678,0.000431,0.000705
78808000,0.0324,0.013523,0.002678,0.000431,0.000940
78809000,0.0324,0.013523,0.002678,0.000431,0.000940
78810000,0.0324,0.013523,0.002678,0.000431,0.000823
78811000,0.0324,0.013523,0.002678,0.000431,0.000823
78812000,0.0324,0.013523,0.002678,0.000431,0.000823
78813000,0.0324,0.013523,0.002678,0.000431,0.000823
78814000,0.0324,0.013523,0.002678,0.000431,0.000940
78815000,0.0324,0.013523,0.002678,0.000431,0.000940
78816000,0.0324,0.013523,0.002678,0.000431,0.000940
78817000,0.0324,0.013523,0.002678,0.000431,0.000823
78818000,0.0324,0.013523,0.002678,0.000431,0.000823
78819000,0.0324,0.013523,0.002678,0.000431,0.000940
78820000,0.0324,0.013523,0.002678,0.000431,0.000823
78821000,0.0324,0.013523,0.002678,0.000431,0.000940
78822000,0.0324,0.013523,0.002678,0.000431,0.000823
78823000,0.0324,0.013523,0.002678,0.000431,0.000940
78824000,0.0324,0.013523,0.002678,0.000431,0.000823
78825000,0.0324,0.013523,0.002678,0.000431,0.000823
78826000,0.0324,0.013523,0.002678,0.000431,0.000940
78827000,0.0324,0.013523,0.002678,0.000431,0.000940
78828000,0.0324,0.013523,0.002678,0.000431,0.000823
78829000,0.0324,0.013523,0.002678,0.000431,0.000823
78830000,0.0324,0.013523,0.002678,0.000431,0.000940
78831000,0.0324,0.013523,0.002678,0.000431,0.000940
78832000,0.0324,0.013523,0.002678,0.000431,0.000823
78833000,0.0324,0.013523,0.002678,0.000431,0.000823
78834000,0.0324,0.013523,0.002678,0.000431,0.000940
78835000,0.0324,0.013523,0.002678,0.000431,0.000940
78836000,0.0324,0.013523,0.002678,0.000431,0.000823
78837000,0.0324,0.013523,0.002678,0.000431,0.000823
78838000,0.0324,0.013523,0.002678,0.000431,0.000940
78839000,0.0324,0.013523,0.002678,0.000431,0.000823
78840000,0.0324,0.013523,0.002678,0.000431,0.000940
78841000,0.0324,0.013523,0.002678,0.000431,0.000823
78842000,0.0324,0.013523,0.002678,0.000431,0.000940
78843000,0.0324,0.013523,0.002678,0.000431,0.000823
78844000,0.0324,0.013523,0.002678,0.000431,0.000823
78845000,0.0324,0.013523,0.002678,0.000431,0.000940
78846000,0.0324,0.013523,0.002678,0.000431,0.000940
78847000,0.0324,0.013523,0.002678,0.000431,0.000823
78848000,0.0324,0.013523,0.002678,0.000431,0.000823
78849000,0.0324,0.013523,0.002678,0.000431,0.000940
78850000,0.0324,0.013523,0.002678,0.000431,0.000940
78851000,0.0324,0.013523,0.002678,0.000431,0.000705
78852000,0.0324,0.013523,0.002678,0.000431,0.000940
78853000,0.0324,0.013523,0.002678,0.000431,0.000940
78854000,0.0324,0.013523,0.002678,0.000431,0.000940
78855000,0.0324,0.013523,0.002678,0.000431,0.000705
78856000,0.0324,0.013523,0.002678,0.000431,0.000940
78857000,0.0324,0.013523,0.002678,0.000431,0.000940
78858000,0.0324,0.013523,0.002678,0.000431,0.000823
78859000,0.0324,0.013523,0.002678,0.000431,0.000940
78860000,0.0324,0.013523,0.002678,0.000431,0.000823
78861000,0.0324,0.013523,0.002678,0.000431,0.000940
78862000,0.0324,0.013523,0.002678,0.000431,0.000823
78863000,0.0324,0.013523,0.002678,0.000431,0.000823
78864000,0.0324,0.013523,0.002678,0.000431,0.000940
78865000,0.0324,0.013523,0.002678,0.000431,0.000823
78866000,0.0324,0.013523,0.002678,0.000431,0.000823
78867000,0.0324,0.013523,0.002678,0.000431,0.000940
78868000,0.0324,0.013523,0.002678,0.000431,0.000940
78869000,0.0324,0.013523,0.002678,0.000431,0.000940
78870000,0.0324,0.013523,0.002678,0.000431,0.000705
78871000,0.0324,0.013523,0.002678,0.000431,0.000940
78872000,0.0324,0.013523,0.002678,0.000431,0.000940
78873000,0.0324,0.013523,0.002678,0.000431,0.000823
78874000,0.0324,0.013523,0.002678,0.000431,0.000823
78875000,0.0324,0.013523,0.002678,0.000431,0.000940
78876000,0.0324,0.013523,0.002678,0.000431,0.000940
78877000,0.0324,0.013523,0.002678,0.000431,0.000823
78878000,0.0324,0.013523,0.002678,0.000431,0.000823
78879000,0.0324,0.013523,0.002678,0.000431,0.000940
78880000,0.0324,0.013523,0.002678,0.000431,0.000823
78881000,0.0324,0.013523,0.002678,0.000431,0.000940
78882000,0.0324,0.013523,0.002678,0.000431,0.000823
78883000,0.0324,0.013523,0.002678,0.000431,0.000940
78884000,0.0324,0.013523,0.002678,0.000431,0.000823
78885000,0.0324,0.013523,0.002678,0.000431,0.000823
78886000,0.0324,0.013523,0.002678,0.000431,0.000940
78887000,0.0324,0.013523,0.002678,0.000431,0.000940
78888000,0.0324,0.013523,0.002678,0.000431,0.000823
78889000,0.0324,0.013523,0.002678,0.000431,0.000823
78890000,0.0324,0.013523,0.002678,0.000431,0.000940
78891000,0.0324,0.013523,0.002678,0.000431,0.000940
78892000,0.0324,0.013523,0.002678,0.000431,0.000823
78893000,0.0324,0.013523,0.002678,0.000431,0.000940
78894000,0.0324,0.013523,0.002678,0.000431,0.000823
78895000,0.0324,0.013523,0.002678,0.000431,0.000940
78896000,0.0324,0.013523,0.002678,0.000431,0.000940
78897000,0.0324,0.013523,0.002678,0.000431,0.000705
78898000,0.0324,0.013523,0.002678,0.000431,0.000940
78899000,0.0324,0.013523,0.002678,0.000431,0.000940
78900000,0.0324,0.013523,0.002678,0.000431,0.000940
78901000,0.0324,0.013523,0.002678,0.000431,0.000705
78902000,0.0324,0.013523,0.002678,0.000431,0.000940
78903000,0.0324,0.013523,0.002678,0.000431,0.000940
78904000,0.0324,0.013523,0.002678,0.000431,0.000823
78905000,0.0324,0.013523,0.002678,0.000431,0.000823
78906000,0.0324,0.013523,0.002678,0.000431,0.000940
78907000,0.0324,0.013523,0.002678,0.000431,0.000823
78908000,0.0324,0.013523,0.002678,0.000431,0.000940
78909000,0.0324,0.013523,0.002678,0.000431,0.000823
78910000,0.0324,0.013523,0.002678,0.000431,0.000940
78911000,0.0324,0.013523,0.002678,0.000431,0.000823
78912000,0.0324,0.013523,0.002678,0.000431,0.000823
78913000,0.0324,0.013523,0.002678,0.000431,0.000940
78914000,0.0324,0.013523,0.002678,0.000431,0.000940
78915000,0.0324,0.013523,0.002678,0.000431,0.000823
78916000,0.0324,0.013523,0.002678,0.000431,0.000823
78917000,0.0324,0.013523,0.002678,0.000431,0.000940
78918000,0.0324,0.013523,0.002678,0.000431,0.000940
78919000,0.0324,0.013523,0.002678,0.000431,0.000823
78920000,0.0324,0.013523,0.002678,0.000431,0.000823
78921000,0.0324,0.013523,0.002678,0.000431,0.013868
78922000,0.0324,0.013523,0.002678,0.000431,0.530052
78923000,0.0324,0.013523,0.002678,0.000431,0.602449
78924000,0.0324,0.013523,0.002678,0.000431,0.145970
78925000,0.0324,0.013523,0.002678,0.000431,0.132102
78926000,0.0324,0.013523,0.002678,0.000431,0.351527
78927000,0.0324,0.013523,0.002678,0.000431,0.432974
78928000,0.0324,0.013523,0.002678,0.000431,0.226124
78929000,0.0324,0.013523,0.002678,0.000431,0.340714
78930000,0.0324,0.013523,0.002678,0.000431,0.177232
78931000,0.0324,0.013523,0.002678,0.000431,0.144795
78932000,0.0324,0.013523,0.002678,0.000431,0.119291
78933000,0.0324,0.013523,0.002678,0.000431,0.315916
78934000,0.0324,0.013523,0.002678,0.000431,0.286416
78935000,0.0324,0.013523,0.002678,0.000431,0.057354
78936000,0.0324,0.013523,0.002678,0.000431,0.035376
78937000,0.0324,0.013523,0.002678,0.000431,0.032555
78938000,0.0324,0.013523,0.002678,0.000431,0.030792
78939000,0.0324,0.013523,0.002678,0.000431,0.019980
78940000,0.0324,0.013523,0.002678,0.000431,0.020215
78941000,0.0324,0.013523,0.002678,0.000431,0.015514
78942000,0.0324,0.013523,0.002678,0.000431,0.012223
78943000,0.0324,0.013523,0.002678,0.000431,0.009167
78944000,0.0324,0.013523,0.002678,0.000431,0.008345
78945000,0.0324,0.013523,0.002678,0.000431,0.008697
78946000,0.0324,0.013523,0.002678,0.000431,0.007757
78947000,0.0324,0.013523,0.002678,0.000431,0.007874
78948000,0.0324,0.013523,0.002678,0.000431,0.011283
78949000,0.0324,0.013523,0.002678,0.000431,0.005994
78950000,0.0324,0.013523,0.002678,0.000431,0.005641
78951000,0.0324,0.013523,0.002678,0.000431,0.006229
78952000,0.0324,0.013523,0.002678,0.000431,0.006229
78953000,0.0324,0.013523,0.002678,0.000431,0.005641
78954000,0.0324,0.013523,0.002678,0.000431,0.006111
78955000,0.0324,0.013523,0.002678,0.000431,0.005876
78956000,0.0324,0.013523,0.002678,0.000431,0.005994
78957000,0.0324,0.013523,0.002678,0.000431,0.007757
78958000,0.0324,0.013523,0.002678,0.000431,0.004936
78959000,0.0324,0.013523,0.002678,0.000431,0.006464
78960000,0.0324,0.013523,0.002678,0.000431,0.004349
78961000,0.0324,0.013523,0.002678,0.000431,0.004231
78962000,0.0324,0.013523,0.002678,0.000431,0.004113
78963000,0.0324,0.013523,0.002678,0.000431,0.004349
78964000,0.0324,0.013523,0.002678,0.000431,0.004349
78965000,0.0324,0.013523,0.002678,0.000431,0.004113
78966000,0.0324,0.013523,0.002678,0.000431,0.007169
78967000,0.0324,0.013523,0.002678,0.000431,0.003291
78968000,0.0324,0.013523,0.002678,0.000431,0.003173
78969000,0.0324,0.013523,0.002678,0.000431,0.003643
78970000,0.0324,0.013523,0.002678,0.000431,0.003173
78971000,0.0324,0.013523,0.002678,0.000431,0.003526
78972000,0.0324,0.013523,0.002678,0.000431,0.003291
78973000,0.0324,0.013523,0.002678,0.000431,0.003173
78974000,0.0324,0.013523,0.002678,0.000431,0.003643
78975000,0.0324,0.013523,0.002678,0.000431,0.003291
78976000,0.0324,0.013523,0.002678,0.000431,0.003526
78977000,0.0324,0.013523,0.002678,0.000431,0.003173
78978000,0.0324,0.013523,0.002678,0.000431,0.003526
78979000,0.0324,0.013523,0.002678,0.000431,0.003408
78980000,0.0324,0.013523,0.002678,0.000431,0.003173
78981000,0.0324,0.013523,0.002678,0.000431,0.003291
78982000,0.0324,0.013523,0.002678,0.000431,0.003643
78983000,0.0324,0.013523,0.002678,0.000431,0.003408
78984000,0.0324,0.013523,0.002678,0.000431,0.003291
78985000,0.0324,0.013523,0.002678,0.000431,0.003173
78986000,0.0324,0.013523,0.002678,0.000431,0.003643
78987000,0.0324,0.013523,0.002678,0.000431,0.003408
78988000,0.0324,0.013523,0.002678,0.000431,0.003291
78989000,0.0324,0.013523,0.002678,0.000431,0.003526
78990000,0.0324,0.013523,0.002678,0.000431,0.003056
78991000,0.0324,0.013523,0.002678,0.000431,0.003643
78992000,0.0324,0.013523,0.002678,0.000431,0.003408
78993000,0.0324,0.013523,0.002678,0.000431,0.003291
78994000,0.0324,0.013523,0.002678,0.000431,0.003643
78995000,0.0324,0.013523,0.002678,0.000431,0.003056
78996000,0.0324,0.013523,0.002678,0.000431,0.003526
78997000,0.0324,0.013523,0.002678,0.000431,0.003526
78998000,0.0324,0.013523,0.002678,0.000431,0.003408
78999000,0.0324,0.013523,0.002678,0.000431,0.003173
