Cycle,Area(mm^2),PeakDynamic(W),SubthresholdLeakage(W),GateLeakage(W),RunTimeDynamic(W)
49000000,0.0324,0.013523,0.002678,0.000431,0.004113
49001000,0.0324,0.013523,0.002678,0.000431,0.004231
49002000,0.0324,0.013523,0.002678,0.000431,0.004231
49003000,0.0324,0.013523,0.002678,0.000431,0.004231
49004000,0.0324,0.013523,0.002678,0.000431,0.004349
49005000,0.0324,0.013523,0.002678,0.000431,0.003996
49006000,0.0324,0.013523,0.002678,0.000431,0.004349
49007000,0.0324,0.013523,0.002678,0.000431,0.004231
49008000,0.0324,0.013523,0.002678,0.000431,0.004349
49009000,0.0324,0.013523,0.002678,0.000431,0.003996
49010000,0.0324,0.013523,0.002678,0.000431,0.004231
49011000,0.0324,0.013523,0.002678,0.000431,0.004466
49012000,0.0324,0.013523,0.002678,0.000431,0.003996
49013000,0.0324,0.013523,0.002678,0.000431,0.004231
49014000,0.0324,0.013523,0.002678,0.000431,0.004349
49015000,0.0324,0.013523,0.002678,0.000431,0.004349
49016000,0.0324,0.013523,0.002678,0.000431,0.004113
49017000,0.0324,0.013523,0.002678,0.000431,0.003878
49018000,0.0324,0.013523,0.002678,0.000431,0.006464
49019000,0.0324,0.013523,0.002678,0.000431,0.003291
49020000,0.0324,0.013523,0.002678,0.000431,0.003291
49021000,0.0324,0.013523,0.002678,0.000431,0.003526
49022000,0.0324,0.013523,0.002678,0.000431,0.003056
49023000,0.0324,0.013523,0.002678,0.000431,0.003408
49024000,0.0324,0.013523,0.002678,0.000431,0.003408
49025000,0.0324,0.013523,0.002678,0.000431,0.003408
49026000,0.0324,0.013523,0.002678,0.000431,0.003291
49027000,0.0324,0.013523,0.002678,0.000431,0.003408
49028000,0.0324,0.013523,0.002678,0.000431,0.003408
49029000,0.0324,0.013523,0.002678,0.000431,0.003408
49030000,0.0324,0.013523,0.002678,0.000431,0.003291
49031000,0.0324,0.013523,0.002678,0.000431,0.003291
49032000,0.0324,0.013523,0.002678,0.000431,0.003408
49033000,0.0324,0.013523,0.002678,0.000431,0.003173
49034000,0.0324,0.013523,0.002678,0.000431,0.003408
49035000,0.0324,0.013523,0.002678,0.000431,0.003408
49036000,0.0324,0.013523,0.002678,0.000431,0.003408
49037000,0.0324,0.013523,0.002678,0.000431,0.003408
49038000,0.0324,0.013523,0.002678,0.000431,0.003291
49039000,0.0324,0.013523,0.002678,0.000431,0.003173
49040000,0.0324,0.013523,0.002678,0.000431,0.003291
49041000,0.0324,0.013523,0.002678,0.000431,0.003643
49042000,0.0324,0.013523,0.002678,0.000431,0.003291
49043000,0.0324,0.013523,0.002678,0.000431,0.006111
49044000,0.0324,0.013523,0.002678,0.000431,0.002821
49045000,0.0324,0.013523,0.002678,0.000431,0.001645
49046000,0.0324,0.013523,0.002678,0.000431,0.001763
49047000,0.0324,0.013523,0.002678,0.000431,0.001763
49048000,0.0324,0.013523,0.002678,0.000431,0.001645
49049000,0.0324,0.013523,0.002678,0.000431,0.001645
49050000,0.0324,0.013523,0.002678,0.000431,0.001645
49051000,0.0324,0.013523,0.002678,0.000431,0.001763
49052000,0.0324,0.013523,0.002678,0.000431,0.001645
49053000,0.0324,0.013523,0.002678,0.000431,0.001645
49054000,0.0324,0.013523,0.002678,0.000431,0.001763
49055000,0.0324,0.013523,0.002678,0.000431,0.001528
49056000,0.0324,0.013523,0.002678,0.000431,0.001763
49057000,0.0324,0.013523,0.002678,0.000431,0.001763
49058000,0.0324,0.013523,0.002678,0.000431,0.001528
49059000,0.0324,0.013523,0.002678,0.000431,0.001763
49060000,0.0324,0.013523,0.002678,0.000431,0.001645
49061000,0.0324,0.013523,0.002678,0.000431,0.001763
49062000,0.0324,0.013523,0.002678,0.000431,0.001410
49063000,0.0324,0.013523,0.002678,0.000431,0.001880
49064000,0.0324,0.013523,0.002678,0.000431,0.001763
49065000,0.0324,0.013523,0.002678,0.000431,0.001528
49066000,0.0324,0.013523,0.002678,0.000431,0.001763
49067000,0.0324,0.013523,0.002678,0.000431,0.001528
49068000,0.0324,0.013523,0.002678,0.000431,0.001763
49069000,0.0324,0.013523,0.002678,0.000431,0.001645
49070000,0.0324,0.013523,0.002678,0.000431,0.001645
49071000,0.0324,0.013523,0.002678,0.000431,0.001645
49072000,0.0324,0.013523,0.002678,0.000431,0.001763
49073000,0.0324,0.013523,0.002678,0.000431,0.001880
49074000,0.0324,0.013523,0.002678,0.000431,0.001528
49075000,0.0324,0.013523,0.002678,0.000431,0.001763
49076000,0.0324,0.013523,0.002678,0.000431,0.001763
49077000,0.0324,0.013523,0.002678,0.000431,0.001645
49078000,0.0324,0.013523,0.002678,0.000431,0.001763
49079000,0.0324,0.013523,0.002678,0.000431,0.001645
49080000,0.0324,0.013523,0.002678,0.000431,0.001763
49081000,0.0324,0.013523,0.002678,0.000431,0.001763
49082000,0.0324,0.013523,0.002678,0.000431,0.001528
49083000,0.0324,0.013523,0.002678,0.000431,0.001763
49084000,0.0324,0.013523,0.002678,0.000431,0.001645
49085000,0.0324,0.013523,0.002678,0.000431,0.001645
49086000,0.0324,0.013523,0.002678,0.000431,0.001763
49087000,0.0324,0.013523,0.002678,0.000431,0.001528
49088000,0.0324,0.013523,0.002678,0.000431,0.001763
49089000,0.0324,0.013523,0.002678,0.000431,0.001763
49090000,0.0324,0.013523,0.002678,0.000431,0.001645
49091000,0.0324,0.013523,0.002678,0.000431,0.001645
49092000,0.0324,0.013523,0.002678,0.000431,0.001645
49093000,0.0324,0.013523,0.002678,0.000431,0.001645
49094000,0.0324,0.013523,0.002678,0.000431,0.001763
49095000,0.0324,0.013523,0.002678,0.000431,0.001528
49096000,0.0324,0.013523,0.002678,0.000431,0.001763
49097000,0.0324,0.013523,0.002678,0.000431,0.001763
49098000,0.0324,0.013523,0.002678,0.000431,0.001645
49099000,0.0324,0.013523,0.002678,0.000431,0.001645
49100000,0.0324,0.013523,0.002678,0.000431,0.001645
49101000,0.0324,0.013523,0.002678,0.000431,0.001763
49102000,0.0324,0.013523,0.002678,0.000431,0.001645
49103000,0.0324,0.013523,0.002678,0.000431,0.001645
49104000,0.0324,0.013523,0.002678,0.000431,0.001645
49105000,0.0324,0.013523,0.002678,0.000431,0.001528
49106000,0.0324,0.013523,0.002678,0.000431,0.001880
49107000,0.0324,0.013523,0.002678,0.000431,0.001410
49108000,0.0324,0.013523,0.002678,0.000431,0.001880
49109000,0.0324,0.013523,0.002678,0.000431,0.001645
49110000,0.0324,0.013523,0.002678,0.000431,0.001645
49111000,0.0324,0.013523,0.002678,0.000431,0.001763
49112000,0.0324,0.013523,0.002678,0.000431,0.001645
49113000,0.0324,0.013523,0.002678,0.000431,0.001763
49114000,0.0324,0.013523,0.002678,0.000431,0.001410
49115000,0.0324,0.013523,0.002678,0.000431,0.001763
49116000,0.0324,0.013523,0.002678,0.000431,0.001880
49117000,0.0324,0.013523,0.002678,0.000431,0.001763
49118000,0.0324,0.013523,0.002678,0.000431,0.001528
49119000,0.0324,0.013523,0.002678,0.000431,0.001763
49120000,0.0324,0.013523,0.002678,0.000431,0.001763
49121000,0.0324,0.013523,0.002678,0.000431,0.001645
49122000,0.0324,0.013523,0.002678,0.000431,0.001880
49123000,0.0324,0.013523,0.002678,0.000431,0.001528
49124000,0.0324,0.013523,0.002678,0.000431,0.001880
49125000,0.0324,0.013523,0.002678,0.000431,0.001528
49126000,0.0324,0.013523,0.002678,0.000431,0.001763
49127000,0.0324,0.013523,0.002678,0.000431,0.001763
49128000,0.0324,0.013523,0.002678,0.000431,0.001528
49129000,0.0324,0.013523,0.002678,0.000431,0.001880
49130000,0.0324,0.013523,0.002678,0.000431,0.001410
49131000,0.0324,0.013523,0.002678,0.000431,0.001880
49132000,0.0324,0.013523,0.002678,0.000431,0.001645
49133000,0.0324,0.013523,0.002678,0.000431,0.001645
49134000,0.0324,0.013523,0.002678,0.000431,0.001528
49135000,0.0324,0.013523,0.002678,0.000431,0.001763
49136000,0.0324,0.013523,0.002678,0.000431,0.001880
49137000,0.0324,0.013523,0.002678,0.000431,0.001410
49138000,0.0324,0.013523,0.002678,0.000431,0.001880
49139000,0.0324,0.013523,0.002678,0.000431,0.001528
49140000,0.0324,0.013523,0.002678,0.000431,0.001763
49141000,0.0324,0.013523,0.002678,0.000431,0.001645
49142000,0.0324,0.013523,0.002678,0.000431,0.001645
49143000,0.0324,0.013523,0.002678,0.000431,0.001880
49144000,0.0324,0.013523,0.002678,0.000431,0.001410
49145000,0.0324,0.013523,0.002678,0.000431,0.001880
49146000,0.0324,0.013523,0.002678,0.000431,0.001645
49147000,0.0324,0.013523,0.002678,0.000431,0.001645
49148000,0.0324,0.013523,0.002678,0.000431,0.001528
49149000,0.0324,0.013523,0.002678,0.000431,0.001763
49150000,0.0324,0.013523,0.002678,0.000431,0.001998
49151000,0.0324,0.013523,0.002678,0.000431,0.001528
49152000,0.0324,0.013523,0.002678,0.000431,0.001880
49153000,0.0324,0.013523,0.002678,0.000431,0.001763
49154000,0.0324,0.013523,0.002678,0.000431,0.001528
49155000,0.0324,0.013523,0.002678,0.000431,0.001763
49156000,0.0324,0.013523,0.002678,0.000431,0.001763
49157000,0.0324,0.013523,0.002678,0.000431,0.001528
49158000,0.0324,0.013523,0.002678,0.000431,0.001763
49159000,0.0324,0.013523,0.002678,0.000431,0.001645
49160000,0.0324,0.013523,0.002678,0.000431,0.001645
49161000,0.0324,0.013523,0.002678,0.000431,0.001763
49162000,0.0324,0.013523,0.002678,0.000431,0.001645
49163000,0.0324,0.013523,0.002678,0.000431,0.001763
49164000,0.0324,0.013523,0.002678,0.000431,0.001528
49165000,0.0324,0.013523,0.002678,0.000431,0.001763
49166000,0.0324,0.013523,0.002678,0.000431,0.001763
49167000,0.0324,0.013523,0.002678,0.000431,0.001528
49168000,0.0324,0.013523,0.002678,0.000431,0.001763
49169000,0.0324,0.013523,0.002678,0.000431,0.001528
49170000,0.0324,0.013523,0.002678,0.000431,0.001880
49171000,0.0324,0.013523,0.002678,0.000431,0.001528
49172000,0.0324,0.013523,0.002678,0.000431,0.001763
49173000,0.0324,0.013523,0.002678,0.000431,0.001763
49174000,0.0324,0.013523,0.002678,0.000431,0.001528
49175000,0.0324,0.013523,0.002678,0.000431,0.001645
49176000,0.0324,0.013523,0.002678,0.000431,0.001763
49177000,0.0324,0.013523,0.002678,0.000431,0.001763
49178000,0.0324,0.013523,0.002678,0.000431,0.001528
49179000,0.0324,0.013523,0.002678,0.000431,0.001763
49180000,0.0324,0.013523,0.002678,0.000431,0.001528
49181000,0.0324,0.013523,0.002678,0.000431,0.001763
49182000,0.0324,0.013523,0.002678,0.000431,0.001763
49183000,0.0324,0.013523,0.002678,0.000431,0.001528
49184000,0.0324,0.013523,0.002678,0.000431,0.001880
49185000,0.0324,0.013523,0.002678,0.000431,0.001528
49186000,0.0324,0.013523,0.002678,0.000431,0.001763
49187000,0.0324,0.013523,0.002678,0.000431,0.001528
49188000,0.0324,0.013523,0.002678,0.000431,0.001763
49189000,0.0324,0.013523,0.002678,0.000431,0.001763
49190000,0.0324,0.013523,0.002678,0.000431,0.001528
49191000,0.0324,0.013523,0.002678,0.000431,0.001763
49192000,0.0324,0.013523,0.002678,0.000431,0.001528
49193000,0.0324,0.013523,0.002678,0.000431,0.001880
49194000,0.0324,0.013523,0.002678,0.000431,0.001645
49195000,0.0324,0.013523,0.002678,0.000431,0.001645
49196000,0.0324,0.013523,0.002678,0.000431,0.001763
49197000,0.0324,0.013523,0.002678,0.000431,0.001528
49198000,0.0324,0.013523,0.002678,0.000431,0.001763
49199000,0.0324,0.013523,0.002678,0.000431,0.001645
49200000,0.0324,0.013523,0.002678,0.000431,0.001645
49201000,0.0324,0.013523,0.002678,0.000431,0.001645
49202000,0.0324,0.013523,0.002678,0.000431,0.001763
49203000,0.0324,0.013523,0.002678,0.000431,0.001645
49204000,0.0324,0.013523,0.002678,0.000431,0.001645
49205000,0.0324,0.013523,0.002678,0.000431,0.001645
49206000,0.0324,0.013523,0.002678,0.000431,0.001645
49207000,0.0324,0.013523,0.002678,0.000431,0.001763
49208000,0.0324,0.013523,0.002678,0.000431,0.001645
49209000,0.0324,0.013523,0.002678,0.000431,0.001763
49210000,0.0324,0.013523,0.002678,0.000431,0.001528
49211000,0.0324,0.013523,0.002678,0.000431,0.001763
49212000,0.0324,0.013523,0.002678,0.000431,0.001528
49213000,0.0324,0.013523,0.002678,0.000431,0.001763
49214000,0.0324,0.013523,0.002678,0.000431,0.001880
49215000,0.0324,0.013523,0.002678,0.000431,0.001410
49216000,0.0324,0.013523,0.002678,0.000431,0.001880
49217000,0.0324,0.013523,0.002678,0.000431,0.001528
49218000,0.0324,0.013523,0.002678,0.000431,0.001763
49219000,0.0324,0.013523,0.002678,0.000431,0.001645
49220000,0.0324,0.013523,0.002678,0.000431,0.001645
49221000,0.0324,0.013523,0.002678,0.000431,0.001763
49222000,0.0324,0.013523,0.002678,0.000431,0.001528
49223000,0.0324,0.013523,0.002678,0.000431,0.001880
49224000,0.0324,0.013523,0.002678,0.000431,0.001645
49225000,0.0324,0.013523,0.002678,0.000431,0.001645
49226000,0.0324,0.013523,0.002678,0.000431,0.001645
49227000,0.0324,0.013523,0.002678,0.000431,0.001645
49228000,0.0324,0.013523,0.002678,0.000431,0.001528
49229000,0.0324,0.013523,0.002678,0.000431,0.001763
49230000,0.0324,0.013523,0.002678,0.000431,0.001880
49231000,0.0324,0.013523,0.002678,0.000431,0.001410
49232000,0.0324,0.013523,0.002678,0.000431,0.001880
49233000,0.0324,0.013523,0.002678,0.000431,0.001528
49234000,0.0324,0.013523,0.002678,0.000431,0.001763
49235000,0.0324,0.013523,0.002678,0.000431,0.001528
49236000,0.0324,0.013523,0.002678,0.000431,0.001763
49237000,0.0324,0.013523,0.002678,0.000431,0.001880
49238000,0.0324,0.013523,0.002678,0.000431,0.001410
49239000,0.0324,0.013523,0.002678,0.000431,0.001880
49240000,0.0324,0.013523,0.002678,0.000431,0.001528
49241000,0.0324,0.013523,0.002678,0.000431,0.001763
49242000,0.0324,0.013523,0.002678,0.000431,0.001645
49243000,0.0324,0.013523,0.002678,0.000431,0.001645
49244000,0.0324,0.013523,0.002678,0.000431,0.001880
49245000,0.0324,0.013523,0.002678,0.000431,0.001410
49246000,0.0324,0.013523,0.002678,0.000431,0.001880
49247000,0.0324,0.013523,0.002678,0.000431,0.001645
49248000,0.0324,0.013523,0.002678,0.000431,0.001645
49249000,0.0324,0.013523,0.002678,0.000431,0.001645
49250000,0.0324,0.013523,0.002678,0.000431,0.001645
49251000,0.0324,0.013523,0.002678,0.000431,0.001645
49252000,0.0324,0.013523,0.002678,0.000431,0.001645
49253000,0.0324,0.013523,0.002678,0.000431,0.001763
49254000,0.0324,0.013523,0.002678,0.000431,0.001645
49255000,0.0324,0.013523,0.002678,0.000431,0.001645
49256000,0.0324,0.013523,0.002678,0.000431,0.001763
49257000,0.0324,0.013523,0.002678,0.000431,0.001645
49258000,0.0324,0.013523,0.002678,0.000431,0.001528
49259000,0.0324,0.013523,0.002678,0.000431,0.001763
49260000,0.0324,0.013523,0.002678,0.000431,0.001645
49261000,0.0324,0.013523,0.002678,0.000431,0.001645
49262000,0.0324,0.013523,0.002678,0.000431,0.001880
49263000,0.0324,0.013523,0.002678,0.000431,0.001410
49264000,0.0324,0.013523,0.002678,0.000431,0.001880
49265000,0.0324,0.013523,0.002678,0.000431,0.001645
49266000,0.0324,0.013523,0.002678,0.000431,0.001645
49267000,0.0324,0.013523,0.002678,0.000431,0.001880
49268000,0.0324,0.013523,0.002678,0.000431,0.001410
49269000,0.0324,0.013523,0.002678,0.000431,0.001880
49270000,0.0324,0.013523,0.002678,0.000431,0.001528
49271000,0.0324,0.013523,0.002678,0.000431,0.001763
49272000,0.0324,0.013523,0.002678,0.000431,0.001763
49273000,0.0324,0.013523,0.002678,0.000431,0.001528
49274000,0.0324,0.013523,0.002678,0.000431,0.001763
49275000,0.0324,0.013523,0.002678,0.000431,0.001645
49276000,0.0324,0.013523,0.002678,0.000431,0.001763
49277000,0.0324,0.013523,0.002678,0.000431,0.001410
49278000,0.0324,0.013523,0.002678,0.000431,0.001880
49279000,0.0324,0.013523,0.002678,0.000431,0.001645
49280000,0.0324,0.013523,0.002678,0.000431,0.001645
49281000,0.0324,0.013523,0.002678,0.000431,0.001645
49282000,0.0324,0.013523,0.002678,0.000431,0.001645
49283000,0.0324,0.013523,0.002678,0.000431,0.001528
49284000,0.0324,0.013523,0.002678,0.000431,0.001763
49285000,0.0324,0.013523,0.002678,0.000431,0.001880
49286000,0.0324,0.013523,0.002678,0.000431,0.001528
49287000,0.0324,0.013523,0.002678,0.000431,0.001763
49288000,0.0324,0.013523,0.002678,0.000431,0.001410
49289000,0.0324,0.013523,0.002678,0.000431,0.001880
49290000,0.0324,0.013523,0.002678,0.000431,0.001880
49291000,0.0324,0.013523,0.002678,0.000431,0.001410
49292000,0.0324,0.013523,0.002678,0.000431,0.001880
49293000,0.0324,0.013523,0.002678,0.000431,0.001410
49294000,0.0324,0.013523,0.002678,0.000431,0.001880
49295000,0.0324,0.013523,0.002678,0.000431,0.001645
49296000,0.0324,0.013523,0.002678,0.000431,0.001645
49297000,0.0324,0.013523,0.002678,0.000431,0.001645
49298000,0.0324,0.013523,0.002678,0.000431,0.001645
49299000,0.0324,0.013523,0.002678,0.000431,0.001880
49300000,0.0324,0.013523,0.002678,0.000431,0.001410
49301000,0.0324,0.013523,0.002678,0.000431,0.001880
49302000,0.0324,0.013523,0.002678,0.000431,0.001645
49303000,0.0324,0.013523,0.002678,0.000431,0.001528
49304000,0.0324,0.013523,0.002678,0.000431,0.002821
49305000,0.0324,0.013523,0.002678,0.000431,0.001880
49306000,0.0324,0.013523,0.002678,0.000431,0.000823
49307000,0.0324,0.013523,0.002678,0.000431,0.000823
49308000,0.0324,0.013523,0.002678,0.000431,0.000823
49309000,0.0324,0.013523,0.002678,0.000431,0.000823
49310000,0.0324,0.013523,0.002678,0.000431,0.000940
49311000,0.0324,0.013523,0.002678,0.000431,0.000823
49312000,0.0324,0.013523,0.002678,0.000431,0.000823
49313000,0.0324,0.013523,0.002678,0.000431,0.000705
49314000,0.0324,0.013523,0.002678,0.000431,0.000940
49315000,0.0324,0.013523,0.002678,0.000431,0.000940
49316000,0.0324,0.013523,0.002678,0.000431,0.000705
49317000,0.0324,0.013523,0.002678,0.000431,0.000940
49318000,0.0324,0.013523,0.002678,0.000431,0.000705
49319000,0.0324,0.013523,0.002678,0.000431,0.000940
49320000,0.0324,0.013523,0.002678,0.000431,0.000823
49321000,0.0324,0.013523,0.002678,0.000431,0.000823
49322000,0.0324,0.013523,0.002678,0.000431,0.000940
49323000,0.0324,0.013523,0.002678,0.000431,0.000705
49324000,0.0324,0.013523,0.002678,0.000431,0.000940
49325000,0.0324,0.013523,0.002678,0.000431,0.000823
49326000,0.0324,0.013523,0.002678,0.000431,0.000823
49327000,0.0324,0.013523,0.002678,0.000431,0.000823
49328000,0.0324,0.013523,0.002678,0.000431,0.000823
49329000,0.0324,0.013523,0.002678,0.000431,0.000823
49330000,0.0324,0.013523,0.002678,0.000431,0.000823
49331000,0.0324,0.013523,0.002678,0.000431,0.000940
49332000,0.0324,0.013523,0.002678,0.000431,0.000705
49333000,0.0324,0.013523,0.002678,0.000431,0.000940
49334000,0.0324,0.013523,0.002678,0.000431,0.000823
49335000,0.0324,0.013523,0.002678,0.000431,0.000823
49336000,0.0324,0.013523,0.002678,0.000431,0.000705
49337000,0.0324,0.013523,0.002678,0.000431,0.000940
49338000,0.0324,0.013523,0.002678,0.000431,0.000940
49339000,0.0324,0.013523,0.002678,0.000431,0.000705
49340000,0.0324,0.013523,0.002678,0.000431,0.000940
49341000,0.0324,0.013523,0.002678,0.000431,0.000705
49342000,0.0324,0.013523,0.002678,0.000431,0.000940
49343000,0.0324,0.013523,0.002678,0.000431,0.000823
49344000,0.0324,0.013523,0.002678,0.000431,0.000823
49345000,0.0324,0.013523,0.002678,0.000431,0.000940
49346000,0.0324,0.013523,0.002678,0.000431,0.000705
49347000,0.0324,0.013523,0.002678,0.000431,0.000940
49348000,0.0324,0.013523,0.002678,0.000431,0.000823
49349000,0.0324,0.013523,0.002678,0.000431,0.000823
49350000,0.0324,0.013523,0.002678,0.000431,0.000823
49351000,0.0324,0.013523,0.002678,0.000431,0.000823
49352000,0.0324,0.013523,0.002678,0.000431,0.000823
49353000,0.0324,0.013523,0.002678,0.000431,0.000823
49354000,0.0324,0.013523,0.002678,0.000431,0.000940
49355000,0.0324,0.013523,0.002678,0.000431,0.000823
49356000,0.0324,0.013523,0.002678,0.000431,0.000823
49357000,0.0324,0.013523,0.002678,0.000431,0.000823
49358000,0.0324,0.013523,0.002678,0.000431,0.000823
49359000,0.0324,0.013523,0.002678,0.000431,0.000823
49360000,0.0324,0.013523,0.002678,0.000431,0.000823
49361000,0.0324,0.013523,0.002678,0.000431,0.000823
49362000,0.0324,0.013523,0.002678,0.000431,0.000823
49363000,0.0324,0.013523,0.002678,0.000431,0.000940
49364000,0.0324,0.013523,0.002678,0.000431,0.000823
49365000,0.0324,0.013523,0.002678,0.000431,0.000823
49366000,0.0324,0.013523,0.002678,0.000431,0.000705
49367000,0.0324,0.013523,0.002678,0.000431,0.000940
49368000,0.0324,0.013523,0.002678,0.000431,0.000940
49369000,0.0324,0.013523,0.002678,0.000431,0.000705
49370000,0.0324,0.013523,0.002678,0.000431,0.000940
49371000,0.0324,0.013523,0.002678,0.000431,0.000705
49372000,0.0324,0.013523,0.002678,0.000431,0.000940
49373000,0.0324,0.013523,0.002678,0.000431,0.000940
49374000,0.0324,0.013523,0.002678,0.000431,0.000705
49375000,0.0324,0.013523,0.002678,0.000431,0.000940
49376000,0.0324,0.013523,0.002678,0.000431,0.000705
49377000,0.0324,0.013523,0.002678,0.000431,0.000940
49378000,0.0324,0.013523,0.002678,0.000431,0.000823
49379000,0.0324,0.013523,0.002678,0.000431,0.000823
49380000,0.0324,0.013523,0.002678,0.000431,0.000940
49381000,0.0324,0.013523,0.002678,0.000431,0.000705
49382000,0.0324,0.013523,0.002678,0.000431,0.000940
49383000,0.0324,0.013523,0.002678,0.000431,0.000823
49384000,0.0324,0.013523,0.002678,0.000431,0.000823
49385000,0.0324,0.013523,0.002678,0.000431,0.000823
49386000,0.0324,0.013523,0.002678,0.000431,0.000823
49387000,0.0324,0.013523,0.002678,0.000431,0.000823
49388000,0.0324,0.013523,0.002678,0.000431,0.000823
49389000,0.0324,0.013523,0.002678,0.000431,0.000940
49390000,0.0324,0.013523,0.002678,0.000431,0.000705
49391000,0.0324,0.013523,0.002678,0.000431,0.000940
49392000,0.0324,0.013523,0.002678,0.000431,0.000823
49393000,0.0324,0.013523,0.002678,0.000431,0.000823
49394000,0.0324,0.013523,0.002678,0.000431,0.000823
49395000,0.0324,0.013523,0.002678,0.000431,0.000823
49396000,0.0324,0.013523,0.002678,0.000431,0.000940
49397000,0.0324,0.013523,0.002678,0.000431,0.000705
49398000,0.0324,0.013523,0.002678,0.000431,0.000940
49399000,0.0324,0.013523,0.002678,0.000431,0.000705
49400000,0.0324,0.013523,0.002678,0.000431,0.000940
49401000,0.0324,0.013523,0.002678,0.000431,0.000940
49402000,0.0324,0.013523,0.002678,0.000431,0.000705
49403000,0.0324,0.013523,0.002678,0.000431,0.000940
49404000,0.0324,0.013523,0.002678,0.000431,0.000705
49405000,0.0324,0.013523,0.002678,0.000431,0.000940
49406000,0.0324,0.013523,0.002678,0.000431,0.000823
49407000,0.0324,0.013523,0.002678,0.000431,0.000823
49408000,0.0324,0.013523,0.002678,0.000431,0.000823
49409000,0.0324,0.013523,0.002678,0.000431,0.000823
49410000,0.0324,0.013523,0.002678,0.000431,0.000940
49411000,0.0324,0.013523,0.002678,0.000431,0.000705
49412000,0.0324,0.013523,0.002678,0.000431,0.000940
49413000,0.0324,0.013523,0.002678,0.000431,0.000823
49414000,0.0324,0.013523,0.002678,0.000431,0.000823
49415000,0.0324,0.013523,0.002678,0.000431,0.000823
49416000,0.0324,0.013523,0.002678,0.000431,0.000823
49417000,0.0324,0.013523,0.002678,0.000431,0.000940
49418000,0.0324,0.013523,0.002678,0.000431,0.000705
49419000,0.0324,0.013523,0.002678,0.000431,0.000823
49420000,0.0324,0.013523,0.002678,0.000431,0.000940
49421000,0.0324,0.013523,0.002678,0.000431,0.000823
49422000,0.0324,0.013523,0.002678,0.000431,0.000823
49423000,0.0324,0.013523,0.002678,0.000431,0.000823
49424000,0.0324,0.013523,0.002678,0.000431,0.000823
49425000,0.0324,0.013523,0.002678,0.000431,0.000823
49426000,0.0324,0.013523,0.002678,0.000431,0.000940
49427000,0.0324,0.013523,0.002678,0.000431,0.000823
49428000,0.0324,0.013523,0.002678,0.000431,0.000823
49429000,0.0324,0.013523,0.002678,0.000431,0.000705
49430000,0.0324,0.013523,0.002678,0.000431,0.000940
49431000,0.0324,0.013523,0.002678,0.000431,0.000940
49432000,0.0324,0.013523,0.002678,0.000431,0.000705
49433000,0.0324,0.013523,0.002678,0.000431,0.000940
49434000,0.0324,0.013523,0.002678,0.000431,0.000705
49435000,0.0324,0.013523,0.002678,0.000431,0.000940
49436000,0.0324,0.013523,0.002678,0.000431,0.000823
49437000,0.0324,0.013523,0.002678,0.000431,0.000823
49438000,0.0324,0.013523,0.002678,0.000431,0.000940
49439000,0.0324,0.013523,0.002678,0.000431,0.000705
49440000,0.0324,0.013523,0.002678,0.000431,0.000940
49441000,0.0324,0.013523,0.002678,0.000431,0.000823
49442000,0.0324,0.013523,0.002678,0.000431,0.000823
49443000,0.0324,0.013523,0.002678,0.000431,0.000823
49444000,0.0324,0.013523,0.002678,0.000431,0.000823
49445000,0.0324,0.013523,0.002678,0.000431,0.000940
49446000,0.0324,0.013523,0.002678,0.000431,0.000705
49447000,0.0324,0.013523,0.002678,0.000431,0.000940
49448000,0.0324,0.013523,0.002678,0.000431,0.000705
49449000,0.0324,0.013523,0.002678,0.000431,0.000940
49450000,0.0324,0.013523,0.002678,0.000431,0.000823
49451000,0.0324,0.013523,0.002678,0.000431,0.000823
49452000,0.0324,0.013523,0.002678,0.000431,0.000705
49453000,0.0324,0.013523,0.002678,0.000431,0.000940
49454000,0.0324,0.013523,0.002678,0.000431,0.000940
49455000,0.0324,0.013523,0.002678,0.000431,0.000705
49456000,0.0324,0.013523,0.002678,0.000431,0.000940
49457000,0.0324,0.013523,0.002678,0.000431,0.000705
49458000,0.0324,0.013523,0.002678,0.000431,0.000940
49459000,0.0324,0.013523,0.002678,0.000431,0.000823
49460000,0.0324,0.013523,0.002678,0.000431,0.000823
49461000,0.0324,0.013523,0.002678,0.000431,0.000940
49462000,0.0324,0.013523,0.002678,0.000431,0.000705
49463000,0.0324,0.013523,0.002678,0.000431,0.000940
49464000,0.0324,0.013523,0.002678,0.000431,0.000823
49465000,0.0324,0.013523,0.002678,0.000431,0.000823
49466000,0.0324,0.013523,0.002678,0.000431,0.000823
49467000,0.0324,0.013523,0.002678,0.000431,0.000823
49468000,0.0324,0.013523,0.002678,0.000431,0.000940
49469000,0.0324,0.013523,0.002678,0.000431,0.000705
49470000,0.0324,0.013523,0.002678,0.000431,0.000940
49471000,0.0324,0.013523,0.002678,0.000431,0.000823
49472000,0.0324,0.013523,0.002678,0.000431,0.000823
49473000,0.0324,0.013523,0.002678,0.000431,0.000823
49474000,0.0324,0.013523,0.002678,0.000431,0.000823
49475000,0.0324,0.013523,0.002678,0.000431,0.000823
49476000,0.0324,0.013523,0.002678,0.000431,0.000823
49477000,0.0324,0.013523,0.002678,0.000431,0.000823
49478000,0.0324,0.013523,0.002678,0.000431,0.000940
49479000,0.0324,0.013523,0.002678,0.000431,0.000823
49480000,0.0324,0.013523,0.002678,0.000431,0.000823
49481000,0.0324,0.013523,0.002678,0.000431,0.000823
49482000,0.0324,0.013523,0.002678,0.000431,0.000705
49483000,0.0324,0.013523,0.002678,0.000431,0.000940
49484000,0.0324,0.013523,0.002678,0.000431,0.000940
49485000,0.0324,0.013523,0.002678,0.000431,0.000705
49486000,0.0324,0.013523,0.002678,0.000431,0.000940
49487000,0.0324,0.013523,0.002678,0.000431,0.000705
49488000,0.0324,0.013523,0.002678,0.000431,0.000940
49489000,0.0324,0.013523,0.002678,0.000431,0.000940
49490000,0.0324,0.013523,0.002678,0.000431,0.000705
49491000,0.0324,0.013523,0.002678,0.000431,0.000940
49492000,0.0324,0.013523,0.002678,0.000431,0.000705
49493000,0.0324,0.013523,0.002678,0.000431,0.000940
49494000,0.0324,0.013523,0.002678,0.000431,0.000823
49495000,0.0324,0.013523,0.002678,0.000431,0.000823
49496000,0.0324,0.013523,0.002678,0.000431,0.000940
49497000,0.0324,0.013523,0.002678,0.000431,0.000705
49498000,0.0324,0.013523,0.002678,0.000431,0.000940
49499000,0.0324,0.013523,0.002678,0.000431,0.000823
49500000,0.0324,0.013523,0.002678,0.000431,0.000823
49501000,0.0324,0.013523,0.002678,0.000431,0.000823
49502000,0.0324,0.013523,0.002678,0.000431,0.000823
49503000,0.0324,0.013523,0.002678,0.000431,0.000940
49504000,0.0324,0.013523,0.002678,0.000431,0.000705
49505000,0.0324,0.013523,0.002678,0.000431,0.000940
49506000,0.0324,0.013523,0.002678,0.000431,0.000823
49507000,0.0324,0.013523,0.002678,0.000431,0.000823
49508000,0.0324,0.013523,0.002678,0.000431,0.000823
49509000,0.0324,0.013523,0.002678,0.000431,0.000823
49510000,0.0324,0.013523,0.002678,0.000431,0.000823
49511000,0.0324,0.013523,0.002678,0.000431,0.000823
49512000,0.0324,0.013523,0.002678,0.000431,0.000940
49513000,0.0324,0.013523,0.002678,0.000431,0.000705
49514000,0.0324,0.013523,0.002678,0.000431,0.000940
49515000,0.0324,0.013523,0.002678,0.000431,0.000705
49516000,0.0324,0.013523,0.002678,0.000431,0.000940
49517000,0.0324,0.013523,0.002678,0.000431,0.000940
49518000,0.0324,0.013523,0.002678,0.000431,0.000705
49519000,0.0324,0.013523,0.002678,0.000431,0.000940
49520000,0.0324,0.013523,0.002678,0.000431,0.000705
49521000,0.0324,0.013523,0.002678,0.000431,0.000940
49522000,0.0324,0.013523,0.002678,0.000431,0.000823
49523000,0.0324,0.013523,0.002678,0.000431,0.000823
49524000,0.0324,0.013523,0.002678,0.000431,0.000823
49525000,0.0324,0.013523,0.002678,0.000431,0.000823
49526000,0.0324,0.013523,0.002678,0.000431,0.000940
49527000,0.0324,0.013523,0.002678,0.000431,0.000705
49528000,0.0324,0.013523,0.002678,0.000431,0.000940
49529000,0.0324,0.013523,0.002678,0.000431,0.000823
49530000,0.0324,0.013523,0.002678,0.000431,0.000823
49531000,0.0324,0.013523,0.002678,0.000431,0.000823
49532000,0.0324,0.013523,0.002678,0.000431,0.000823
49533000,0.0324,0.013523,0.002678,0.000431,0.000940
49534000,0.0324,0.013523,0.002678,0.000431,0.000705
49535000,0.0324,0.013523,0.002678,0.000431,0.000823
49536000,0.0324,0.013523,0.002678,0.000431,0.000940
49537000,0.0324,0.013523,0.002678,0.000431,0.000823
49538000,0.0324,0.013523,0.002678,0.000431,0.000823
49539000,0.0324,0.013523,0.002678,0.000431,0.000823
49540000,0.0324,0.013523,0.002678,0.000431,0.000823
49541000,0.0324,0.013523,0.002678,0.000431,0.000823
49542000,0.0324,0.013523,0.002678,0.000431,0.000940
49543000,0.0324,0.013523,0.002678,0.000431,0.000823
49544000,0.0324,0.013523,0.002678,0.000431,0.000823
49545000,0.0324,0.013523,0.002678,0.000431,0.000705
49546000,0.0324,0.013523,0.002678,0.000431,0.000940
49547000,0.0324,0.013523,0.002678,0.000431,0.000940
49548000,0.0324,0.013523,0.002678,0.000431,0.000705
49549000,0.0324,0.013523,0.002678,0.000431,0.000940
49550000,0.0324,0.013523,0.002678,0.000431,0.000705
49551000,0.0324,0.013523,0.002678,0.000431,0.000940
49552000,0.0324,0.013523,0.002678,0.000431,0.000823
49553000,0.0324,0.013523,0.002678,0.000431,0.000823
49554000,0.0324,0.013523,0.002678,0.000431,0.000940
49555000,0.0324,0.013523,0.002678,0.000431,0.000705
49556000,0.0324,0.013523,0.002678,0.000431,0.000940
49557000,0.0324,0.013523,0.002678,0.000431,0.000823
49558000,0.0324,0.013523,0.002678,0.000431,0.000823
49559000,0.0324,0.013523,0.002678,0.000431,0.000823
49560000,0.0324,0.013523,0.002678,0.000431,0.000823
49561000,0.0324,0.013523,0.002678,0.000431,0.000940
49562000,0.0324,0.013523,0.002678,0.000431,0.000705
49563000,0.0324,0.013523,0.002678,0.000431,0.000940
49564000,0.0324,0.013523,0.002678,0.000431,0.000823
49565000,0.0324,0.013523,0.002678,0.000431,0.000823
49566000,0.0324,0.013523,0.002678,0.000431,0.000823
49567000,0.0324,0.013523,0.002678,0.000431,0.000823
49568000,0.0324,0.013523,0.002678,0.000431,0.000823
49569000,0.0324,0.013523,0.002678,0.000431,0.000823
49570000,0.0324,0.013523,0.002678,0.000431,0.000940
49571000,0.0324,0.013523,0.002678,0.000431,0.000823
49572000,0.0324,0.013523,0.002678,0.000431,0.000823
49573000,0.0324,0.013523,0.002678,0.000431,0.000705
49574000,0.0324,0.013523,0.002678,0.000431,0.000940
49575000,0.0324,0.013523,0.002678,0.000431,0.000940
49576000,0.0324,0.013523,0.002678,0.000431,0.000705
49577000,0.0324,0.013523,0.002678,0.000431,0.000940
49578000,0.0324,0.013523,0.002678,0.000431,0.000705
49579000,0.0324,0.013523,0.002678,0.000431,0.000940
49580000,0.0324,0.013523,0.002678,0.000431,0.000823
49581000,0.0324,0.013523,0.002678,0.000431,0.000823
49582000,0.0324,0.013523,0.002678,0.000431,0.000823
49583000,0.0324,0.013523,0.002678,0.000431,0.000823
49584000,0.0324,0.013523,0.002678,0.000431,0.000940
49585000,0.0324,0.013523,0.002678,0.000431,0.000823
49586000,0.0324,0.013523,0.002678,0.000431,0.000823
49587000,0.0324,0.013523,0.002678,0.000431,0.000823
49588000,0.0324,0.013523,0.002678,0.000431,0.000823
49589000,0.0324,0.013523,0.002678,0.000431,0.000823
49590000,0.0324,0.013523,0.002678,0.000431,0.000823
49591000,0.0324,0.013523,0.002678,0.000431,0.000940
49592000,0.0324,0.013523,0.002678,0.000431,0.000705
49593000,0.0324,0.013523,0.002678,0.000431,0.000823
49594000,0.0324,0.013523,0.002678,0.000431,0.000940
49595000,0.0324,0.013523,0.002678,0.000431,0.000823
49596000,0.0324,0.013523,0.002678,0.000431,0.000823
49597000,0.0324,0.013523,0.002678,0.000431,0.000823
49598000,0.0324,0.013523,0.002678,0.000431,0.000823
49599000,0.0324,0.013523,0.002678,0.000431,0.000823
49600000,0.0324,0.013523,0.002678,0.000431,0.000940
49601000,0.0324,0.013523,0.002678,0.000431,0.000823
49602000,0.0324,0.013523,0.002678,0.000431,0.000823
49603000,0.0324,0.013523,0.002678,0.000431,0.000705
49604000,0.0324,0.013523,0.002678,0.000431,0.000940
49605000,0.0324,0.013523,0.002678,0.000431,0.000940
49606000,0.0324,0.013523,0.002678,0.000431,0.000705
49607000,0.0324,0.013523,0.002678,0.000431,0.000940
49608000,0.0324,0.013523,0.002678,0.000431,0.000705
49609000,0.0324,0.013523,0.002678,0.000431,0.000940
49610000,0.0324,0.013523,0.002678,0.000431,0.000940
49611000,0.0324,0.013523,0.002678,0.000431,0.000705
49612000,0.0324,0.013523,0.002678,0.000431,0.000940
49613000,0.0324,0.013523,0.002678,0.000431,0.000705
49614000,0.0324,0.013523,0.002678,0.000431,0.000940
49615000,0.0324,0.013523,0.002678,0.000431,0.000823
49616000,0.0324,0.013523,0.002678,0.000431,0.000823
49617000,0.0324,0.013523,0.002678,0.000431,0.000823
49618000,0.0324,0.013523,0.002678,0.000431,0.000823
49619000,0.0324,0.013523,0.002678,0.000431,0.000940
49620000,0.0324,0.013523,0.002678,0.000431,0.000705
49621000,0.0324,0.013523,0.002678,0.000431,0.000940
49622000,0.0324,0.013523,0.002678,0.000431,0.000823
49623000,0.0324,0.013523,0.002678,0.000431,0.000823
49624000,0.0324,0.013523,0.002678,0.000431,0.000823
49625000,0.0324,0.013523,0.002678,0.000431,0.000823
49626000,0.0324,0.013523,0.002678,0.000431,0.000940
49627000,0.0324,0.013523,0.002678,0.000431,0.000705
49628000,0.0324,0.013523,0.002678,0.000431,0.000940
49629000,0.0324,0.013523,0.002678,0.000431,0.000823
49630000,0.0324,0.013523,0.002678,0.000431,0.000823
49631000,0.0324,0.013523,0.002678,0.000431,0.000705
49632000,0.0324,0.013523,0.002678,0.000431,0.000940
49633000,0.0324,0.013523,0.002678,0.000431,0.000940
49634000,0.0324,0.013523,0.002678,0.000431,0.000705
49635000,0.0324,0.013523,0.002678,0.000431,0.000940
49636000,0.0324,0.013523,0.002678,0.000431,0.000705
49637000,0.0324,0.013523,0.002678,0.000431,0.000940
49638000,0.0324,0.013523,0.002678,0.000431,0.000940
49639000,0.0324,0.013523,0.002678,0.000431,0.000705
49640000,0.0324,0.013523,0.002678,0.000431,0.000940
49641000,0.0324,0.013523,0.002678,0.000431,0.000940
49642000,0.0324,0.013523,0.002678,0.000431,0.000705
49643000,0.0324,0.013523,0.002678,0.000431,0.002351
49644000,0.0324,0.013523,0.002678,0.000431,0.342125
49645000,0.0324,0.013523,0.002678,0.000431,0.668735
49646000,0.0324,0.013523,0.002678,0.000431,0.176645
49647000,0.0324,0.013523,0.002678,0.000431,0.131632
49648000,0.0324,0.013523,0.002678,0.000431,0.133982
49649000,0.0324,0.013523,0.002678,0.000431,0.614202
49650000,0.0324,0.013523,0.002678,0.000431,0.259032
49651000,0.0324,0.013523,0.002678,0.000431,0.249042
49652000,0.0324,0.013523,0.002678,0.000431,0.281598
49653000,0.0324,0.013523,0.002678,0.000431,0.141739
49654000,0.0324,0.013523,0.002678,0.000431,0.159721
49655000,0.0324,0.013523,0.002678,0.000431,0.104718
49656000,0.0324,0.013523,0.002678,0.000431,0.447900
49657000,0.0324,0.013523,0.002678,0.000431,0.119056
49658000,0.0324,0.013523,0.002678,0.000431,0.041723
49659000,0.0324,0.013523,0.002678,0.000431,0.038902
49660000,0.0324,0.013523,0.002678,0.000431,0.029852
49661000,0.0324,0.013523,0.002678,0.000431,0.028559
49662000,0.0324,0.013523,0.002678,0.000431,0.028912
49663000,0.0324,0.013523,0.002678,0.000431,0.026796
49664000,0.0324,0.013523,0.002678,0.000431,0.026209
49665000,0.0324,0.013523,0.002678,0.000431,0.025269
49666000,0.0324,0.013523,0.002678,0.000431,0.025269
49667000,0.0324,0.013523,0.002678,0.000431,0.020332
49668000,0.0324,0.013523,0.002678,0.000431,0.022918
49669000,0.0324,0.013523,0.002678,0.000431,0.013398
49670000,0.0324,0.013523,0.002678,0.000431,0.012576
49671000,0.0324,0.013523,0.002678,0.000431,0.015396
49672000,0.0324,0.013523,0.002678,0.000431,0.014103
49673000,0.0324,0.013523,0.002678,0.000431,0.014221
49674000,0.0324,0.013523,0.002678,0.000431,0.009402
49675000,0.0324,0.013523,0.002678,0.000431,0.009520
49676000,0.0324,0.013523,0.002678,0.000431,0.007169
49677000,0.0324,0.013523,0.002678,0.000431,0.007287
49678000,0.0324,0.013523,0.002678,0.000431,0.007404
49679000,0.0324,0.013523,0.002678,0.000431,0.006111
49680000,0.0324,0.013523,0.002678,0.000431,0.006347
49681000,0.0324,0.013523,0.002678,0.000431,0.005406
49682000,0.0324,0.013523,0.002678,0.000431,0.006111
49683000,0.0324,0.013523,0.002678,0.000431,0.006699
49684000,0.0324,0.013523,0.002678,0.000431,0.005994
49685000,0.0324,0.013523,0.002678,0.000431,0.004936
49686000,0.0324,0.013523,0.002678,0.000431,0.005054
49687000,0.0324,0.013523,0.002678,0.000431,0.005171
49688000,0.0324,0.013523,0.002678,0.000431,0.004466
49689000,0.0324,0.013523,0.002678,0.000431,0.005524
49690000,0.0324,0.013523,0.002678,0.000431,0.005876
49691000,0.0324,0.013523,0.002678,0.000431,0.004701
49692000,0.0324,0.013523,0.002678,0.000431,0.003996
49693000,0.0324,0.013523,0.002678,0.000431,0.004113
49694000,0.0324,0.013523,0.002678,0.000431,0.004584
49695000,0.0324,0.013523,0.002678,0.000431,0.003408
49696000,0.0324,0.013523,0.002678,0.000431,0.004701
49697000,0.0324,0.013523,0.002678,0.000431,0.005759
49698000,0.0324,0.013523,0.002678,0.000431,0.003408
49699000,0.0324,0.013523,0.002678,0.000431,0.003173
49700000,0.0324,0.013523,0.002678,0.000431,0.003291
49701000,0.0324,0.013523,0.002678,0.000431,0.003526
49702000,0.0324,0.013523,0.002678,0.000431,0.003056
49703000,0.0324,0.013523,0.002678,0.000431,0.005054
49704000,0.0324,0.013523,0.002678,0.000431,0.002116
49705000,0.0324,0.013523,0.002678,0.000431,0.002586
49706000,0.0324,0.013523,0.002678,0.000431,0.002468
49707000,0.0324,0.013523,0.002678,0.000431,0.002468
49708000,0.0324,0.013523,0.002678,0.000431,0.002233
49709000,0.0324,0.013523,0.002678,0.000431,0.002468
49710000,0.0324,0.013523,0.002678,0.000431,0.002351
49711000,0.0324,0.013523,0.002678,0.000431,0.002351
49712000,0.0324,0.013523,0.002678,0.000431,0.002821
49713000,0.0324,0.013523,0.002678,0.000431,0.002233
49714000,0.0324,0.013523,0.002678,0.000431,0.002468
49715000,0.0324,0.013523,0.002678,0.000431,0.002116
49716000,0.0324,0.013523,0.002678,0.000431,0.002586
49717000,0.0324,0.013523,0.002678,0.000431,0.002703
49718000,0.0324,0.013523,0.002678,0.000431,0.001998
49719000,0.0324,0.013523,0.002678,0.000431,0.004701
49720000,0.0324,0.013523,0.002678,0.000431,0.001410
49721000,0.0324,0.013523,0.002678,0.000431,0.001763
49722000,0.0324,0.013523,0.002678,0.000431,0.001645
49723000,0.0324,0.013523,0.002678,0.000431,0.001410
49724000,0.0324,0.013523,0.002678,0.000431,0.009050
49725000,0.0324,0.013523,0.002678,0.000431,0.454129
49726000,0.0324,0.013523,0.002678,0.000431,0.627483
49727000,0.0324,0.013523,0.002678,0.000431,0.132337
49728000,0.0324,0.013523,0.002678,0.000431,0.133277
49729000,0.0324,0.013523,0.002678,0.000431,0.264203
49730000,0.0324,0.013523,0.002678,0.000431,0.562490
49731000,0.0324,0.013523,0.002678,0.000431,0.262205
49732000,0.0324,0.013523,0.002678,0.000431,0.310980
49733000,0.0324,0.013523,0.002678,0.000431,0.170886
49734000,0.0324,0.013523,0.002678,0.000431,0.144795
49735000,0.0324,0.013523,0.002678,0.000431,0.111534
49736000,0.0324,0.013523,0.002678,0.000431,0.321322
49737000,0.0324,0.013523,0.002678,0.000431,0.288532
49738000,0.0324,0.013523,0.002678,0.000431,0.058294
49739000,0.0324,0.013523,0.002678,0.000431,0.049949
49740000,0.0324,0.013523,0.002678,0.000431,0.036081
49741000,0.0324,0.013523,0.002678,0.000431,0.028559
49742000,0.0324,0.013523,0.002678,0.000431,0.023976
49743000,0.0324,0.013523,0.002678,0.000431,0.028207
49744000,0.0324,0.013523,0.002678,0.000431,0.022095
49745000,0.0324,0.013523,0.002678,0.000431,0.022683
49746000,0.0324,0.013523,0.002678,0.000431,0.010342
49747000,0.0324,0.013523,0.002678,0.000431,0.012340
49748000,0.0324,0.013523,0.002678,0.000431,0.012223
49749000,0.0324,0.013523,0.002678,0.000431,0.009402
49750000,0.0324,0.013523,0.002678,0.000431,0.008580
49751000,0.0324,0.013523,0.002678,0.000431,0.005876
49752000,0.0324,0.013523,0.002678,0.000431,0.006464
49753000,0.0324,0.013523,0.002678,0.000431,0.005641
49754000,0.0324,0.013523,0.002678,0.000431,0.005994
49755000,0.0324,0.013523,0.002678,0.000431,0.006111
49756000,0.0324,0.013523,0.002678,0.000431,0.007169
49757000,0.0324,0.013523,0.002678,0.000431,0.004936
49758000,0.0324,0.013523,0.002678,0.000431,0.005054
49759000,0.0324,0.013523,0.002678,0.000431,0.005171
49760000,0.0324,0.013523,0.002678,0.000431,0.005289
49761000,0.0324,0.013523,0.002678,0.000431,0.005406
49762000,0.0324,0.013523,0.002678,0.000431,0.004936
49763000,0.0324,0.013523,0.002678,0.000431,0.005289
49764000,0.0324,0.013523,0.002678,0.000431,0.005054
49765000,0.0324,0.013523,0.002678,0.000431,0.006699
49766000,0.0324,0.013523,0.002678,0.000431,0.004349
49767000,0.0324,0.013523,0.002678,0.000431,0.004349
49768000,0.0324,0.013523,0.002678,0.000431,0.004349
49769000,0.0324,0.013523,0.002678,0.000431,0.003996
49770000,0.0324,0.013523,0.002678,0.000431,0.004584
49771000,0.0324,0.013523,0.002678,0.000431,0.004466
49772000,0.0324,0.013523,0.002678,0.000431,0.003878
49773000,0.0324,0.013523,0.002678,0.000431,0.004584
49774000,0.0324,0.013523,0.002678,0.000431,0.004113
49775000,0.0324,0.013523,0.002678,0.000431,0.004584
49776000,0.0324,0.013523,0.002678,0.000431,0.003996
49777000,0.0324,0.013523,0.002678,0.000431,0.004349
49778000,0.0324,0.013523,0.002678,0.000431,0.005994
49779000,0.0324,0.013523,0.002678,0.000431,0.005054
49780000,0.0324,0.013523,0.002678,0.000431,0.003526
49781000,0.0324,0.013523,0.002678,0.000431,0.003408
49782000,0.0324,0.013523,0.002678,0.000431,0.005171
49783000,0.0324,0.013523,0.002678,0.000431,0.004584
49784000,0.0324,0.013523,0.002678,0.000431,0.001645
49785000,0.0324,0.013523,0.002678,0.000431,0.001880
49786000,0.0324,0.013523,0.002678,0.000431,0.001528
49787000,0.0324,0.013523,0.002678,0.000431,0.001880
49788000,0.0324,0.013523,0.002678,0.000431,0.001645
49789000,0.0324,0.013523,0.002678,0.000431,0.001763
49790000,0.0324,0.013523,0.002678,0.000431,0.001645
49791000,0.0324,0.013523,0.002678,0.000431,0.001645
49792000,0.0324,0.013523,0.002678,0.000431,0.001763
49793000,0.0324,0.013523,0.002678,0.000431,0.001763
49794000,0.0324,0.013523,0.002678,0.000431,0.001763
49795000,0.0324,0.013523,0.002678,0.000431,0.001528
49796000,0.0324,0.013523,0.002678,0.000431,0.003996
49797000,0.0324,0.013523,0.002678,0.000431,0.000823
49798000,0.0324,0.013523,0.002678,0.000431,0.000940
49799000,0.0324,0.013523,0.002678,0.000431,0.000940
49800000,0.0324,0.013523,0.002678,0.000431,0.000705
49801000,0.0324,0.013523,0.002678,0.000431,0.000940
49802000,0.0324,0.013523,0.002678,0.000431,0.000705
49803000,0.0324,0.013523,0.002678,0.000431,0.000940
49804000,0.0324,0.013523,0.002678,0.000431,0.000823
49805000,0.0324,0.013523,0.002678,0.000431,0.000823
49806000,0.0324,0.013523,0.002678,0.000431,0.000823
49807000,0.0324,0.013523,0.002678,0.000431,0.000823
49808000,0.0324,0.013523,0.002678,0.000431,0.000940
49809000,0.0324,0.013523,0.002678,0.000431,0.000705
49810000,0.0324,0.013523,0.002678,0.000431,0.000940
49811000,0.0324,0.013523,0.002678,0.000431,0.000823
49812000,0.0324,0.013523,0.002678,0.000431,0.000823
49813000,0.0324,0.013523,0.002678,0.000431,0.000823
49814000,0.0324,0.013523,0.002678,0.000431,0.000823
49815000,0.0324,0.013523,0.002678,0.000431,0.000940
49816000,0.0324,0.013523,0.002678,0.000431,0.000705
49817000,0.0324,0.013523,0.002678,0.000431,0.000823
49818000,0.0324,0.013523,0.002678,0.000431,0.002938
49819000,0.0324,0.013523,0.002678,0.000431,0.420633
49820000,0.0324,0.013523,0.002678,0.000431,0.682134
49821000,0.0324,0.013523,0.002678,0.000431,0.136215
49822000,0.0324,0.013523,0.002678,0.000431,0.133512
49823000,0.0324,0.013523,0.002678,0.000431,0.199210
49824000,0.0324,0.013523,0.002678,0.000431,0.561550
49825000,0.0324,0.013523,0.002678,0.000431,0.284418
49826000,0.0324,0.013523,0.002678,0.000431,0.307454
49827000,0.0324,0.013523,0.002678,0.000431,0.199798
49828000,0.0324,0.013523,0.002678,0.000431,0.137155
49829000,0.0324,0.013523,0.002678,0.000431,0.137273
49830000,0.0324,0.013523,0.002678,0.000431,0.236819
49831000,0.0324,0.013523,0.002678,0.000431,0.379734
49832000,0.0324,0.013523,0.002678,0.000431,0.081682
49833000,0.0324,0.013523,0.002678,0.000431,0.071692
49834000,0.0324,0.013523,0.002678,0.000431,0.046659
49835000,0.0324,0.013523,0.002678,0.000431,0.051007
49836000,0.0324,0.013523,0.002678,0.000431,0.033496
49837000,0.0324,0.013523,0.002678,0.000431,0.034671
49838000,0.0324,0.013523,0.002678,0.000431,0.029382
49839000,0.0324,0.013523,0.002678,0.000431,0.027619
49840000,0.0324,0.013523,0.002678,0.000431,0.025974
49841000,0.0324,0.013523,0.002678,0.000431,0.021155
49842000,0.0324,0.013523,0.002678,0.000431,0.020215
49843000,0.0324,0.013523,0.002678,0.000431,0.017747
49844000,0.0324,0.013523,0.002678,0.000431,0.016807
49845000,0.0324,0.013523,0.002678,0.000431,0.017864
49846000,0.0324,0.013523,0.002678,0.000431,0.016336
49847000,0.0324,0.013523,0.002678,0.000431,0.017512
49848000,0.0324,0.013523,0.002678,0.000431,0.016689
49849000,0.0324,0.013523,0.002678,0.000431,0.018687
49850000,0.0324,0.013523,0.002678,0.000431,0.016219
49851000,0.0324,0.013523,0.002678,0.000431,0.016571
49852000,0.0324,0.013523,0.002678,0.000431,0.018099
49853000,0.0324,0.013523,0.002678,0.000431,0.015161
49854000,0.0324,0.013523,0.002678,0.000431,0.019980
49855000,0.0324,0.013523,0.002678,0.000431,0.014573
49856000,0.0324,0.013523,0.002678,0.000431,0.015161
49857000,0.0324,0.013523,0.002678,0.000431,0.011988
49858000,0.0324,0.013523,0.002678,0.000431,0.011283
49859000,0.0324,0.013523,0.002678,0.000431,0.012576
49860000,0.0324,0.013523,0.002678,0.000431,0.011870
49861000,0.0324,0.013523,0.002678,0.000431,0.012693
49862000,0.0324,0.013523,0.002678,0.000431,0.012340
49863000,0.0324,0.013523,0.002678,0.000431,0.011988
49864000,0.0324,0.013523,0.002678,0.000431,0.009402
49865000,0.0324,0.013523,0.002678,0.000431,0.010695
49866000,0.0324,0.013523,0.002678,0.000431,0.010342
49867000,0.0324,0.013523,0.002678,0.000431,0.009402
49868000,0.0324,0.013523,0.002678,0.000431,0.011870
49869000,0.0324,0.013523,0.002678,0.000431,0.008932
49870000,0.0324,0.013523,0.002678,0.000431,0.009167
49871000,0.0324,0.013523,0.002678,0.000431,0.008462
49872000,0.0324,0.013523,0.002678,0.000431,0.009285
49873000,0.0324,0.013523,0.002678,0.000431,0.011165
49874000,0.0324,0.013523,0.002678,0.000431,0.008109
49875000,0.0324,0.013523,0.002678,0.000431,0.008697
49876000,0.0324,0.013523,0.002678,0.000431,0.009990
49877000,0.0324,0.013523,0.002678,0.000431,0.007874
49878000,0.0324,0.013523,0.002678,0.000431,0.005524
49879000,0.0324,0.013523,0.002678,0.000431,0.005994
49880000,0.0324,0.013523,0.002678,0.000431,0.005759
49881000,0.0324,0.013523,0.002678,0.000431,0.005759
49882000,0.0324,0.013523,0.002678,0.000431,0.005759
49883000,0.0324,0.013523,0.002678,0.000431,0.007052
49884000,0.0324,0.013523,0.002678,0.000431,0.006229
49885000,0.0324,0.013523,0.002678,0.000431,0.005171
49886000,0.0324,0.013523,0.002678,0.000431,0.005289
49887000,0.0324,0.013523,0.002678,0.000431,0.004466
49888000,0.0324,0.013523,0.002678,0.000431,0.004819
49889000,0.0324,0.013523,0.002678,0.000431,0.005054
49890000,0.0324,0.013523,0.002678,0.000431,0.004466
49891000,0.0324,0.013523,0.002678,0.000431,0.003878
49892000,0.0324,0.013523,0.002678,0.000431,0.004466
49893000,0.0324,0.013523,0.002678,0.000431,0.004113
49894000,0.0324,0.013523,0.002678,0.000431,0.006229
49895000,0.0324,0.013523,0.002678,0.000431,0.003526
49896000,0.0324,0.013523,0.002678,0.000431,0.003173
49897000,0.0324,0.013523,0.002678,0.000431,0.003643
49898000,0.0324,0.013523,0.002678,0.000431,0.003173
49899000,0.0324,0.013523,0.002678,0.000431,0.003643
49900000,0.0324,0.013523,0.002678,0.000431,0.003526
49901000,0.0324,0.013523,0.002678,0.000431,0.003291
49902000,0.0324,0.013523,0.002678,0.000431,0.003408
49903000,0.0324,0.013523,0.002678,0.000431,0.003291
49904000,0.0324,0.013523,0.002678,0.000431,0.005054
49905000,0.0324,0.013523,0.002678,0.000431,0.002351
49906000,0.0324,0.013523,0.002678,0.000431,0.002703
49907000,0.0324,0.013523,0.002678,0.000431,0.002468
49908000,0.0324,0.013523,0.002678,0.000431,0.002821
49909000,0.0324,0.013523,0.002678,0.000431,0.002703
49910000,0.0324,0.013523,0.002678,0.000431,0.002233
49911000,0.0324,0.013523,0.002678,0.000431,0.002821
49912000,0.0324,0.013523,0.002678,0.000431,0.002468
49913000,0.0324,0.013523,0.002678,0.000431,0.002821
49914000,0.0324,0.013523,0.002678,0.000431,0.002351
49915000,0.0324,0.013523,0.002678,0.000431,0.003526
49916000,0.0324,0.013523,0.002678,0.000431,0.002821
49917000,0.0324,0.013523,0.002678,0.000431,0.001645
49918000,0.0324,0.013523,0.002678,0.000431,0.001763
49919000,0.0324,0.013523,0.002678,0.000431,0.001763
49920000,0.0324,0.013523,0.002678,0.000431,0.001763
49921000,0.0324,0.013523,0.002678,0.000431,0.001528
49922000,0.0324,0.013523,0.002678,0.000431,0.001763
49923000,0.0324,0.013523,0.002678,0.000431,0.001880
49924000,0.0324,0.013523,0.002678,0.000431,0.001528
49925000,0.0324,0.013523,0.002678,0.000431,0.001763
49926000,0.0324,0.013523,0.002678,0.000431,0.003878
49927000,0.0324,0.013523,0.002678,0.000431,0.000823
49928000,0.0324,0.013523,0.002678,0.000431,0.000823
49929000,0.0324,0.013523,0.002678,0.000431,0.000823
49930000,0.0324,0.013523,0.002678,0.000431,0.000823
49931000,0.0324,0.013523,0.002678,0.000431,0.000823
49932000,0.0324,0.013523,0.002678,0.000431,0.000940
49933000,0.0324,0.013523,0.002678,0.000431,0.000705
49934000,0.0324,0.013523,0.002678,0.000431,0.000940
49935000,0.0324,0.013523,0.002678,0.000431,0.000705
49936000,0.0324,0.013523,0.002678,0.000431,0.000940
49937000,0.0324,0.013523,0.002678,0.000431,0.000823
49938000,0.0324,0.013523,0.002678,0.000431,0.000823
49939000,0.0324,0.013523,0.002678,0.000431,0.000940
49940000,0.0324,0.013523,0.002678,0.000431,0.000705
49941000,0.0324,0.013523,0.002678,0.000431,0.000940
49942000,0.0324,0.013523,0.002678,0.000431,0.000823
49943000,0.0324,0.013523,0.002678,0.000431,0.000823
49944000,0.0324,0.013523,0.002678,0.000431,0.000823
49945000,0.0324,0.013523,0.002678,0.000431,0.000823
49946000,0.0324,0.013523,0.002678,0.000431,0.000940
49947000,0.0324,0.013523,0.002678,0.000431,0.000705
49948000,0.0324,0.013523,0.002678,0.000431,0.000940
49949000,0.0324,0.013523,0.002678,0.000431,0.000823
49950000,0.0324,0.013523,0.002678,0.000431,0.000705
49951000,0.0324,0.013523,0.002678,0.000431,0.000940
49952000,0.0324,0.013523,0.002678,0.000431,0.000823
49953000,0.0324,0.013523,0.002678,0.000431,0.000823
49954000,0.0324,0.013523,0.002678,0.000431,0.000823
49955000,0.0324,0.013523,0.002678,0.000431,0.000705
49956000,0.0324,0.013523,0.002678,0.000431,0.000940
49957000,0.0324,0.013523,0.002678,0.000431,0.000940
49958000,0.0324,0.013523,0.002678,0.000431,0.000705
49959000,0.0324,0.013523,0.002678,0.000431,0.000940
49960000,0.0324,0.013523,0.002678,0.000431,0.000823
49961000,0.0324,0.013523,0.002678,0.000431,0.000940
49962000,0.0324,0.013523,0.002678,0.000431,0.000823
49963000,0.0324,0.013523,0.002678,0.000431,0.000940
49964000,0.0324,0.013523,0.002678,0.000431,0.000823
49965000,0.0324,0.013523,0.002678,0.000431,0.000823
49966000,0.0324,0.013523,0.002678,0.000431,0.000940
49967000,0.0324,0.013523,0.002678,0.000431,0.000940
49968000,0.0324,0.013523,0.002678,0.000431,0.000823
49969000,0.0324,0.013523,0.002678,0.000431,0.001998
49970000,0.0324,0.013523,0.002678,0.000431,0.394190
49971000,0.0324,0.013523,0.002678,0.000431,0.715512
49972000,0.0324,0.013523,0.002678,0.000431,0.139976
49973000,0.0324,0.013523,0.002678,0.000431,0.133747
49974000,0.0324,0.013523,0.002678,0.000431,0.189455
49975000,0.0324,0.013523,0.002678,0.000431,0.624897
49976000,0.0324,0.013523,0.002678,0.000431,0.241873
49977000,0.0324,0.013523,0.002678,0.000431,0.298639
49978000,0.0324,0.013523,0.002678,0.000431,0.182521
49979000,0.0324,0.013523,0.002678,0.000431,0.143032
49980000,0.0324,0.013523,0.002678,0.000431,0.141974
49981000,0.0324,0.013523,0.002678,0.000431,0.232001
49982000,0.0324,0.013523,0.002678,0.000431,0.389606
49983000,0.0324,0.013523,0.002678,0.000431,0.072045
49984000,0.0324,0.013523,0.002678,0.000431,0.050655
49985000,0.0324,0.013523,0.002678,0.000431,0.038784
49986000,0.0324,0.013523,0.002678,0.000431,0.035494
49987000,0.0324,0.013523,0.002678,0.000431,0.030087
49988000,0.0324,0.013523,0.002678,0.000431,0.025034
49989000,0.0324,0.013523,0.002678,0.000431,0.021155
49990000,0.0324,0.013523,0.002678,0.000431,0.020567
49991000,0.0324,0.013523,0.002678,0.000431,0.020215
49992000,0.0324,0.013523,0.002678,0.000431,0.019392
49993000,0.0324,0.013523,0.002678,0.000431,0.018452
49994000,0.0324,0.013523,0.002678,0.000431,0.018217
49995000,0.0324,0.013523,0.002678,0.000431,0.018452
49996000,0.0324,0.013523,0.002678,0.000431,0.022565
49997000,0.0324,0.013523,0.002678,0.000431,0.017159
49998000,0.0324,0.013523,0.002678,0.000431,0.013986
49999000,0.0324,0.013523,0.002678,0.000431,0.016454
