Cycle,Area(mm^2),PeakDynamic(W),SubthresholdLeakage(W),GateLeakage(W),RunTimeDynamic(W)
39000000,0.0324,0.013523,0.002678,0.000431,0.000823
39001000,0.0324,0.013523,0.002678,0.000431,0.000940
39002000,0.0324,0.013523,0.002678,0.000431,0.000823
39003000,0.0324,0.013523,0.002678,0.000431,0.196037
39004000,0.0324,0.013523,0.002678,0.000431,0.458830
39005000,0.0324,0.013523,0.002678,0.000431,0.507134
39006000,0.0324,0.013523,0.002678,0.000431,0.133630
39007000,0.0324,0.013523,0.002678,0.000431,0.131984
39008000,0.0324,0.013523,0.002678,0.000431,0.565781
39009000,0.0324,0.013523,0.002678,0.000431,0.245986
39010000,0.0324,0.013523,0.002678,0.000431,0.234939
39011000,0.0324,0.013523,0.002678,0.000431,0.323555
39012000,0.0324,0.013523,0.002678,0.000431,0.142914
39013000,0.0324,0.013523,0.002678,0.000431,0.143502
39014000,0.0324,0.013523,0.002678,0.000431,0.115060
39015000,0.0324,0.013523,0.002678,0.000431,0.358931
39016000,0.0324,0.013523,0.002678,0.000431,0.221188
39017000,0.0324,0.013523,0.002678,0.000431,0.021625
39018000,0.0324,0.013523,0.002678,0.000431,0.020920
39019000,0.0324,0.013523,0.002678,0.000431,0.012576
39020000,0.0324,0.013523,0.002678,0.000431,0.010578
39021000,0.0324,0.013523,0.002678,0.000431,0.012458
39022000,0.0324,0.013523,0.002678,0.000431,0.011988
39023000,0.0324,0.013523,0.002678,0.000431,0.011165
39024000,0.0324,0.013523,0.002678,0.000431,0.011635
39025000,0.0324,0.013523,0.002678,0.000431,0.008932
39026000,0.0324,0.013523,0.002678,0.000431,0.005876
39027000,0.0324,0.013523,0.002678,0.000431,0.007052
39028000,0.0324,0.013523,0.002678,0.000431,0.002468
39029000,0.0324,0.013523,0.002678,0.000431,0.003643
39030000,0.0324,0.013523,0.002678,0.000431,0.001410
39031000,0.0324,0.013523,0.002678,0.000431,0.001880
39032000,0.0324,0.013523,0.002678,0.000431,0.001763
39033000,0.0324,0.013523,0.002678,0.000431,0.001645
39034000,0.0324,0.013523,0.002678,0.000431,0.001645
39035000,0.0324,0.013523,0.002678,0.000431,0.001763
39036000,0.0324,0.013523,0.002678,0.000431,0.001763
39037000,0.0324,0.013523,0.002678,0.000431,0.001645
39038000,0.0324,0.013523,0.002678,0.000431,0.002821
39039000,0.0324,0.013523,0.002678,0.000431,0.013868
39040000,0.0324,0.013523,0.002678,0.000431,0.456832
39041000,0.0324,0.013523,0.002678,0.000431,0.590227
39042000,0.0324,0.013523,0.002678,0.000431,0.133982
39043000,0.0324,0.013523,0.002678,0.000431,0.131161
39044000,0.0324,0.013523,0.002678,0.000431,0.281010
39045000,0.0324,0.013523,0.002678,0.000431,0.477635
39046000,0.0324,0.013523,0.002678,0.000431,0.238347
39047000,0.0324,0.013523,0.002678,0.000431,0.299109
39048000,0.0324,0.013523,0.002678,0.000431,0.218602
39049000,0.0324,0.013523,0.002678,0.000431,0.143972
39050000,0.0324,0.013523,0.002678,0.000431,0.162306
39051000,0.0324,0.013523,0.002678,0.000431,0.129751
39052000,0.0324,0.013523,0.002678,0.000431,0.452013
39053000,0.0324,0.013523,0.002678,0.000431,0.042193
39054000,0.0324,0.013523,0.002678,0.000431,0.029029
39055000,0.0324,0.013523,0.002678,0.000431,0.021390
39056000,0.0324,0.013523,0.002678,0.000431,0.015514
39057000,0.0324,0.013523,0.002678,0.000431,0.018217
39058000,0.0324,0.013523,0.002678,0.000431,0.008815
39059000,0.0324,0.013523,0.002678,0.000431,0.010225
39060000,0.0324,0.013523,0.002678,0.000431,0.008932
39061000,0.0324,0.013523,0.002678,0.000431,0.006582
39062000,0.0324,0.013523,0.002678,0.000431,0.006699
39063000,0.0324,0.013523,0.002678,0.000431,0.006817
39064000,0.0324,0.013523,0.002678,0.000431,0.009050
39065000,0.0324,0.013523,0.002678,0.000431,0.005876
39066000,0.0324,0.013523,0.002678,0.000431,0.005641
39067000,0.0324,0.013523,0.002678,0.000431,0.006111
39068000,0.0324,0.013523,0.002678,0.000431,0.005759
39069000,0.0324,0.013523,0.002678,0.000431,0.010813
39070000,0.0324,0.013523,0.002678,0.000431,0.005406
39071000,0.0324,0.013523,0.002678,0.000431,0.002468
39072000,0.0324,0.013523,0.002678,0.000431,0.002821
39073000,0.0324,0.013523,0.002678,0.000431,0.002233
39074000,0.0324,0.013523,0.002678,0.000431,0.002703
39075000,0.0324,0.013523,0.002678,0.000431,0.002351
39076000,0.0324,0.013523,0.002678,0.000431,0.002586
39077000,0.0324,0.013523,0.002678,0.000431,0.002586
39078000,0.0324,0.013523,0.002678,0.000431,0.002351
39079000,0.0324,0.013523,0.002678,0.000431,0.002586
39080000,0.0324,0.013523,0.002678,0.000431,0.003643
39081000,0.0324,0.013523,0.002678,0.000431,0.002821
39082000,0.0324,0.013523,0.002678,0.000431,0.001645
39083000,0.0324,0.013523,0.002678,0.000431,0.001763
39084000,0.0324,0.013523,0.002678,0.000431,0.001528
39085000,0.0324,0.013523,0.002678,0.000431,0.001763
39086000,0.0324,0.013523,0.002678,0.000431,0.001645
39087000,0.0324,0.013523,0.002678,0.000431,0.001645
39088000,0.0324,0.013523,0.002678,0.000431,0.001645
39089000,0.0324,0.013523,0.002678,0.000431,0.001645
39090000,0.0324,0.013523,0.002678,0.000431,0.001880
39091000,0.0324,0.013523,0.002678,0.000431,0.001645
39092000,0.0324,0.013523,0.002678,0.000431,0.001645
39093000,0.0324,0.013523,0.002678,0.000431,0.001645
39094000,0.0324,0.013523,0.002678,0.000431,0.001528
39095000,0.0324,0.013523,0.002678,0.000431,0.001763
39096000,0.0324,0.013523,0.002678,0.000431,0.001763
39097000,0.0324,0.013523,0.002678,0.000431,0.001645
39098000,0.0324,0.013523,0.002678,0.000431,0.001645
39099000,0.0324,0.013523,0.002678,0.000431,0.001528
39100000,0.0324,0.013523,0.002678,0.000431,0.001880
39101000,0.0324,0.013523,0.002678,0.000431,0.001645
39102000,0.0324,0.013523,0.002678,0.000431,0.001645
39103000,0.0324,0.013523,0.002678,0.000431,0.001763
39104000,0.0324,0.013523,0.002678,0.000431,0.001410
39105000,0.0324,0.013523,0.002678,0.000431,0.001880
39106000,0.0324,0.013523,0.002678,0.000431,0.001763
39107000,0.0324,0.013523,0.002678,0.000431,0.001528
39108000,0.0324,0.013523,0.002678,0.000431,0.001763
39109000,0.0324,0.013523,0.002678,0.000431,0.001528
39110000,0.0324,0.013523,0.002678,0.000431,0.001880
39111000,0.0324,0.013523,0.002678,0.000431,0.001645
39112000,0.0324,0.013523,0.002678,0.000431,0.004584
39113000,0.0324,0.013523,0.002678,0.000431,0.383612
39114000,0.0324,0.013523,0.002678,0.000431,0.666267
39115000,0.0324,0.013523,0.002678,0.000431,0.131161
39116000,0.0324,0.013523,0.002678,0.000431,0.133982
39117000,0.0324,0.013523,0.002678,0.000431,0.148321
39118000,0.0324,0.013523,0.002678,0.000431,0.593987
39119000,0.0324,0.013523,0.002678,0.000431,0.273841
39120000,0.0324,0.013523,0.002678,0.000431,0.275369
39121000,0.0324,0.013523,0.002678,0.000431,0.215899
39122000,0.0324,0.013523,0.002678,0.000431,0.137155
39123000,0.0324,0.013523,0.002678,0.000431,0.149261
39124000,0.0324,0.013523,0.002678,0.000431,0.108243
39125000,0.0324,0.013523,0.002678,0.000431,0.415815
39126000,0.0324,0.013523,0.002678,0.000431,0.125638
39127000,0.0324,0.013523,0.002678,0.000431,0.016336
39128000,0.0324,0.013523,0.002678,0.000431,0.009050
39129000,0.0324,0.013523,0.002678,0.000431,0.011400
39130000,0.0324,0.013523,0.002678,0.000431,0.006347
39131000,0.0324,0.013523,0.002678,0.000431,0.006347
39132000,0.0324,0.013523,0.002678,0.000431,0.005759
39133000,0.0324,0.013523,0.002678,0.000431,0.005759
39134000,0.0324,0.013523,0.002678,0.000431,0.006464
39135000,0.0324,0.013523,0.002678,0.000431,0.007874
39136000,0.0324,0.013523,0.002678,0.000431,0.004936
39137000,0.0324,0.013523,0.002678,0.000431,0.006817
39138000,0.0324,0.013523,0.002678,0.000431,0.004349
39139000,0.0324,0.013523,0.002678,0.000431,0.004231
39140000,0.0324,0.013523,0.002678,0.000431,0.003878
39141000,0.0324,0.013523,0.002678,0.000431,0.004349
39142000,0.0324,0.013523,0.002678,0.000431,0.004231
39143000,0.0324,0.013523,0.002678,0.000431,0.004113
39144000,0.0324,0.013523,0.002678,0.000431,0.004349
39145000,0.0324,0.013523,0.002678,0.000431,0.003996
39146000,0.0324,0.013523,0.002678,0.000431,0.004231
39147000,0.0324,0.013523,0.002678,0.000431,0.004231
39148000,0.0324,0.013523,0.002678,0.000431,0.004349
39149000,0.0324,0.013523,0.002678,0.000431,0.004113
39150000,0.0324,0.013523,0.002678,0.000431,0.004231
39151000,0.0324,0.013523,0.002678,0.000431,0.004231
39152000,0.0324,0.013523,0.002678,0.000431,0.004231
39153000,0.0324,0.013523,0.002678,0.000431,0.004113
39154000,0.0324,0.013523,0.002678,0.000431,0.004231
39155000,0.0324,0.013523,0.002678,0.000431,0.004113
39156000,0.0324,0.013523,0.002678,0.000431,0.004349
39157000,0.0324,0.013523,0.002678,0.000431,0.005994
39158000,0.0324,0.013523,0.002678,0.000431,0.003408
39159000,0.0324,0.013523,0.002678,0.000431,0.003526
39160000,0.0324,0.013523,0.002678,0.000431,0.003173
39161000,0.0324,0.013523,0.002678,0.000431,0.003408
39162000,0.0324,0.013523,0.002678,0.000431,0.003408
39163000,0.0324,0.013523,0.002678,0.000431,0.004701
39164000,0.0324,0.013523,0.002678,0.000431,0.001645
39165000,0.0324,0.013523,0.002678,0.000431,0.001763
39166000,0.0324,0.013523,0.002678,0.000431,0.001880
39167000,0.0324,0.013523,0.002678,0.000431,0.001528
39168000,0.0324,0.013523,0.002678,0.000431,0.001763
39169000,0.0324,0.013523,0.002678,0.000431,0.001645
39170000,0.0324,0.013523,0.002678,0.000431,0.001880
39171000,0.0324,0.013523,0.002678,0.000431,0.001763
39172000,0.0324,0.013523,0.002678,0.000431,0.001528
39173000,0.0324,0.013523,0.002678,0.000431,0.001880
39174000,0.0324,0.013523,0.002678,0.000431,0.001528
39175000,0.0324,0.013523,0.002678,0.000431,0.001880
39176000,0.0324,0.013523,0.002678,0.000431,0.001645
39177000,0.0324,0.013523,0.002678,0.000431,0.001763
39178000,0.0324,0.013523,0.002678,0.000431,0.001645
39179000,0.0324,0.013523,0.002678,0.000431,0.003173
39180000,0.0324,0.013523,0.002678,0.000431,0.000940
39181000,0.0324,0.013523,0.002678,0.000431,0.000705
39182000,0.0324,0.013523,0.002678,0.000431,0.000940
39183000,0.0324,0.013523,0.002678,0.000431,0.000823
39184000,0.0324,0.013523,0.002678,0.000431,0.000705
39185000,0.0324,0.013523,0.002678,0.000431,0.000823
39186000,0.0324,0.013523,0.002678,0.000431,0.000940
39187000,0.0324,0.013523,0.002678,0.000431,0.000705
39188000,0.0324,0.013523,0.002678,0.000431,0.000940
39189000,0.0324,0.013523,0.002678,0.000431,0.000823
39190000,0.0324,0.013523,0.002678,0.000431,0.000823
39191000,0.0324,0.013523,0.002678,0.000431,0.000940
39192000,0.0324,0.013523,0.002678,0.000431,0.000705
39193000,0.0324,0.013523,0.002678,0.000431,0.000940
39194000,0.0324,0.013523,0.002678,0.000431,0.000823
39195000,0.0324,0.013523,0.002678,0.000431,0.000823
39196000,0.0324,0.013523,0.002678,0.000431,0.000940
39197000,0.0324,0.013523,0.002678,0.000431,0.001528
39198000,0.0324,0.013523,0.002678,0.000431,0.315916
39199000,0.0324,0.013523,0.002678,0.000431,0.634182
39200000,0.0324,0.013523,0.002678,0.000431,0.183814
39201000,0.0324,0.013523,0.002678,0.000431,0.131161
39202000,0.0324,0.013523,0.002678,0.000431,0.133512
39203000,0.0324,0.013523,0.002678,0.000431,0.613497
39204000,0.0324,0.013523,0.002678,0.000431,0.227417
39205000,0.0324,0.013523,0.002678,0.000431,0.283125
39206000,0.0324,0.013523,0.002678,0.000431,0.270667
39207000,0.0324,0.013523,0.002678,0.000431,0.134452
39208000,0.0324,0.013523,0.002678,0.000431,0.145970
39209000,0.0324,0.013523,0.002678,0.000431,0.105658
39210000,0.0324,0.013523,0.002678,0.000431,0.383024
39211000,0.0324,0.013523,0.002678,0.000431,0.224479
39212000,0.0324,0.013523,0.002678,0.000431,0.038549
39213000,0.0324,0.013523,0.002678,0.000431,0.033496
39214000,0.0324,0.013523,0.002678,0.000431,0.030792
39215000,0.0324,0.013523,0.002678,0.000431,0.023388
39216000,0.0324,0.013523,0.002678,0.000431,0.019275
39217000,0.0324,0.013523,0.002678,0.000431,0.014103
39218000,0.0324,0.013523,0.002678,0.000431,0.014456
39219000,0.0324,0.013523,0.002678,0.000431,0.011518
39220000,0.0324,0.013523,0.002678,0.000431,0.007992
39221000,0.0324,0.013523,0.002678,0.000431,0.007287
39222000,0.0324,0.013523,0.002678,0.000431,0.006934
39223000,0.0324,0.013523,0.002678,0.000431,0.008109
39224000,0.0324,0.013523,0.002678,0.000431,0.007757
39225000,0.0324,0.013523,0.002678,0.000431,0.007992
39226000,0.0324,0.013523,0.002678,0.000431,0.006347
39227000,0.0324,0.013523,0.002678,0.000431,0.006817
39228000,0.0324,0.013523,0.002678,0.000431,0.006582
39229000,0.0324,0.013523,0.002678,0.000431,0.008109
39230000,0.0324,0.013523,0.002678,0.000431,0.005876
39231000,0.0324,0.013523,0.002678,0.000431,0.005406
39232000,0.0324,0.013523,0.002678,0.000431,0.005759
39233000,0.0324,0.013523,0.002678,0.000431,0.005524
39234000,0.0324,0.013523,0.002678,0.000431,0.005641
39235000,0.0324,0.013523,0.002678,0.000431,0.006111
39236000,0.0324,0.013523,0.002678,0.000431,0.005171
39237000,0.0324,0.013523,0.002678,0.000431,0.005876
39238000,0.0324,0.013523,0.002678,0.000431,0.006464
39239000,0.0324,0.013523,0.002678,0.000431,0.005876
39240000,0.0324,0.013523,0.002678,0.000431,0.004113
39241000,0.0324,0.013523,0.002678,0.000431,0.004819
39242000,0.0324,0.013523,0.002678,0.000431,0.005641
39243000,0.0324,0.013523,0.002678,0.000431,0.004231
39244000,0.0324,0.013523,0.002678,0.000431,0.004701
39245000,0.0324,0.013523,0.002678,0.000431,0.004819
39246000,0.0324,0.013523,0.002678,0.000431,0.004936
39247000,0.0324,0.013523,0.002678,0.000431,0.005171
39248000,0.0324,0.013523,0.002678,0.000431,0.004113
39249000,0.0324,0.013523,0.002678,0.000431,0.005406
39250000,0.0324,0.013523,0.002678,0.000431,0.004231
39251000,0.0324,0.013523,0.002678,0.000431,0.005054
39252000,0.0324,0.013523,0.002678,0.000431,0.004936
39253000,0.0324,0.013523,0.002678,0.000431,0.004584
39254000,0.0324,0.013523,0.002678,0.000431,0.005054
39255000,0.0324,0.013523,0.002678,0.000431,0.004349
39256000,0.0324,0.013523,0.002678,0.000431,0.005054
39257000,0.0324,0.013523,0.002678,0.000431,0.004936
39258000,0.0324,0.013523,0.002678,0.000431,0.004819
39259000,0.0324,0.013523,0.002678,0.000431,0.004584
39260000,0.0324,0.013523,0.002678,0.000431,0.004701
39261000,0.0324,0.013523,0.002678,0.000431,0.005289
39262000,0.0324,0.013523,0.002678,0.000431,0.004349
39263000,0.0324,0.013523,0.002678,0.000431,0.004584
39264000,0.0324,0.013523,0.002678,0.000431,0.005289
39265000,0.0324,0.013523,0.002678,0.000431,0.004466
39266000,0.0324,0.013523,0.002678,0.000431,0.005171
39267000,0.0324,0.013523,0.002678,0.000431,0.004584
39268000,0.0324,0.013523,0.002678,0.000431,0.004701
39269000,0.0324,0.013523,0.002678,0.000431,0.004936
39270000,0.0324,0.013523,0.002678,0.000431,0.004584
39271000,0.0324,0.013523,0.002678,0.000431,0.005054
39272000,0.0324,0.013523,0.002678,0.000431,0.004936
39273000,0.0324,0.013523,0.002678,0.000431,0.004466
39274000,0.0324,0.013523,0.002678,0.000431,0.004819
39275000,0.0324,0.013523,0.002678,0.000431,0.004701
39276000,0.0324,0.013523,0.002678,0.000431,0.005406
39277000,0.0324,0.013523,0.002678,0.000431,0.003996
39278000,0.0324,0.013523,0.002678,0.000431,0.005054
39279000,0.0324,0.013523,0.002678,0.000431,0.005171
39280000,0.0324,0.013523,0.002678,0.000431,0.007522
39281000,0.0324,0.013523,0.002678,0.000431,0.003996
39282000,0.0324,0.013523,0.002678,0.000431,0.003878
39283000,0.0324,0.013523,0.002678,0.000431,0.004466
39284000,0.0324,0.013523,0.002678,0.000431,0.003761
39285000,0.0324,0.013523,0.002678,0.000431,0.003996
39286000,0.0324,0.013523,0.002678,0.000431,0.003878
39287000,0.0324,0.013523,0.002678,0.000431,0.003878
39288000,0.0324,0.013523,0.002678,0.000431,0.004231
39289000,0.0324,0.013523,0.002678,0.000431,0.003408
39290000,0.0324,0.013523,0.002678,0.000431,0.004349
39291000,0.0324,0.013523,0.002678,0.000431,0.004113
39292000,0.0324,0.013523,0.002678,0.000431,0.003526
39293000,0.0324,0.013523,0.002678,0.000431,0.004231
39294000,0.0324,0.013523,0.002678,0.000431,0.003761
39295000,0.0324,0.013523,0.002678,0.000431,0.004466
39296000,0.0324,0.013523,0.002678,0.000431,0.003173
39297000,0.0324,0.013523,0.002678,0.000431,0.004231
39298000,0.0324,0.013523,0.002678,0.000431,0.004349
39299000,0.0324,0.013523,0.002678,0.000431,0.003761
39300000,0.0324,0.013523,0.002678,0.000431,0.003878
39301000,0.0324,0.013523,0.002678,0.000431,0.003761
39302000,0.0324,0.013523,0.002678,0.000431,0.004466
39303000,0.0324,0.013523,0.002678,0.000431,0.003643
39304000,0.0324,0.013523,0.002678,0.000431,0.003643
39305000,0.0324,0.013523,0.002678,0.000431,0.004584
39306000,0.0324,0.013523,0.002678,0.000431,0.003526
39307000,0.0324,0.013523,0.002678,0.000431,0.004349
39308000,0.0324,0.013523,0.002678,0.000431,0.003643
39309000,0.0324,0.013523,0.002678,0.000431,0.004113
39310000,0.0324,0.013523,0.002678,0.000431,0.003878
39311000,0.0324,0.013523,0.002678,0.000431,0.003761
39312000,0.0324,0.013523,0.002678,0.000431,0.004349
39313000,0.0324,0.013523,0.002678,0.000431,0.003761
39314000,0.0324,0.013523,0.002678,0.000431,0.004113
39315000,0.0324,0.013523,0.002678,0.000431,0.003643
39316000,0.0324,0.013523,0.002678,0.000431,0.003996
39317000,0.0324,0.013523,0.002678,0.000431,0.004466
39318000,0.0324,0.013523,0.002678,0.000431,0.003526
39319000,0.0324,0.013523,0.002678,0.000431,0.003996
39320000,0.0324,0.013523,0.002678,0.000431,0.003996
39321000,0.0324,0.013523,0.002678,0.000431,0.004113
39322000,0.0324,0.013523,0.002678,0.000431,0.003878
39323000,0.0324,0.013523,0.002678,0.000431,0.003526
39324000,0.0324,0.013523,0.002678,0.000431,0.004584
39325000,0.0324,0.013523,0.002678,0.000431,0.003643
39326000,0.0324,0.013523,0.002678,0.000431,0.003996
39327000,0.0324,0.013523,0.002678,0.000431,0.003878
39328000,0.0324,0.013523,0.002678,0.000431,0.004113
39329000,0.0324,0.013523,0.002678,0.000431,0.003996
39330000,0.0324,0.013523,0.002678,0.000431,0.003526
39331000,0.0324,0.013523,0.002678,0.000431,0.004231
39332000,0.0324,0.013523,0.002678,0.000431,0.004231
39333000,0.0324,0.013523,0.002678,0.000431,0.003643
39334000,0.0324,0.013523,0.002678,0.000431,0.003996
39335000,0.0324,0.013523,0.002678,0.000431,0.003878
39336000,0.0324,0.013523,0.002678,0.000431,0.004466
39337000,0.0324,0.013523,0.002678,0.000431,0.003408
39338000,0.0324,0.013523,0.002678,0.000431,0.003996
39339000,0.0324,0.013523,0.002678,0.000431,0.004231
39340000,0.0324,0.013523,0.002678,0.000431,0.003878
39341000,0.0324,0.013523,0.002678,0.000431,0.004113
39342000,0.0324,0.013523,0.002678,0.000431,0.003643
39343000,0.0324,0.013523,0.002678,0.000431,0.004231
39344000,0.0324,0.013523,0.002678,0.000431,0.003761
39345000,0.0324,0.013523,0.002678,0.000431,0.003996
39346000,0.0324,0.013523,0.002678,0.000431,0.004113
39347000,0.0324,0.013523,0.002678,0.000431,0.003643
39348000,0.0324,0.013523,0.002678,0.000431,0.004231
39349000,0.0324,0.013523,0.002678,0.000431,0.003526
39350000,0.0324,0.013523,0.002678,0.000431,0.004231
39351000,0.0324,0.013523,0.002678,0.000431,0.004231
39352000,0.0324,0.013523,0.002678,0.000431,0.003408
39353000,0.0324,0.013523,0.002678,0.000431,0.004349
39354000,0.0324,0.013523,0.002678,0.000431,0.003761
39355000,0.0324,0.013523,0.002678,0.000431,0.004349
39356000,0.0324,0.013523,0.002678,0.000431,0.003526
39357000,0.0324,0.013523,0.002678,0.000431,0.003878
39358000,0.0324,0.013523,0.002678,0.000431,0.004466
39359000,0.0324,0.013523,0.002678,0.000431,0.004466
39360000,0.0324,0.013523,0.002678,0.000431,0.003056
39361000,0.0324,0.013523,0.002678,0.000431,0.003056
39362000,0.0324,0.013523,0.002678,0.000431,0.003173
39363000,0.0324,0.013523,0.002678,0.000431,0.003526
39364000,0.0324,0.013523,0.002678,0.000431,0.002468
39365000,0.0324,0.013523,0.002678,0.000431,0.003408
39366000,0.0324,0.013523,0.002678,0.000431,0.003173
39367000,0.0324,0.013523,0.002678,0.000431,0.003291
39368000,0.0324,0.013523,0.002678,0.000431,0.002938
39369000,0.0324,0.013523,0.002678,0.000431,0.002821
39370000,0.0324,0.013523,0.002678,0.000431,0.003643
39371000,0.0324,0.013523,0.002678,0.000431,0.002821
39372000,0.0324,0.013523,0.002678,0.000431,0.003291
39373000,0.0324,0.013523,0.002678,0.000431,0.003056
39374000,0.0324,0.013523,0.002678,0.000431,0.003056
39375000,0.0324,0.013523,0.002678,0.000431,0.003291
39376000,0.0324,0.013523,0.002678,0.000431,0.002703
39377000,0.0324,0.013523,0.002678,0.000431,0.003526
39378000,0.0324,0.013523,0.002678,0.000431,0.003056
39379000,0.0324,0.013523,0.002678,0.000431,0.002938
39380000,0.0324,0.013523,0.002678,0.000431,0.003291
39381000,0.0324,0.013523,0.002678,0.000431,0.002821
39382000,0.0324,0.013523,0.002678,0.000431,0.003761
39383000,0.0324,0.013523,0.002678,0.000431,0.002468
39384000,0.0324,0.013523,0.002678,0.000431,0.003291
39385000,0.0324,0.013523,0.002678,0.000431,0.003291
39386000,0.0324,0.013523,0.002678,0.000431,0.003056
39387000,0.0324,0.013523,0.002678,0.000431,0.003056
39388000,0.0324,0.013523,0.002678,0.000431,0.002938
39389000,0.0324,0.013523,0.002678,0.000431,0.003526
39390000,0.0324,0.013523,0.002678,0.000431,0.002821
39391000,0.0324,0.013523,0.002678,0.000431,0.002938
39392000,0.0324,0.013523,0.002678,0.000431,0.003643
39393000,0.0324,0.013523,0.002678,0.000431,0.002703
39394000,0.0324,0.013523,0.002678,0.000431,0.003408
39395000,0.0324,0.013523,0.002678,0.000431,0.002938
39396000,0.0324,0.013523,0.002678,0.000431,0.003291
39397000,0.0324,0.013523,0.002678,0.000431,0.002938
39398000,0.0324,0.013523,0.002678,0.000431,0.003056
39399000,0.0324,0.013523,0.002678,0.000431,0.003408
39400000,0.0324,0.013523,0.002678,0.000431,0.002938
39401000,0.0324,0.013523,0.002678,0.000431,0.003173
39402000,0.0324,0.013523,0.002678,0.000431,0.002938
39403000,0.0324,0.013523,0.002678,0.000431,0.003173
39404000,0.0324,0.013523,0.002678,0.000431,0.003526
39405000,0.0324,0.013523,0.002678,0.000431,0.002821
39406000,0.0324,0.013523,0.002678,0.000431,0.003056
39407000,0.0324,0.013523,0.002678,0.000431,0.003173
39408000,0.0324,0.013523,0.002678,0.000431,0.003291
39409000,0.0324,0.013523,0.002678,0.000431,0.003056
39410000,0.0324,0.013523,0.002678,0.000431,0.002703
39411000,0.0324,0.013523,0.002678,0.000431,0.003643
39412000,0.0324,0.013523,0.002678,0.000431,0.002821
39413000,0.0324,0.013523,0.002678,0.000431,0.003291
39414000,0.0324,0.013523,0.002678,0.000431,0.003056
39415000,0.0324,0.013523,0.002678,0.000431,0.003056
39416000,0.0324,0.013523,0.002678,0.000431,0.003291
39417000,0.0324,0.013523,0.002678,0.000431,0.002703
39418000,0.0324,0.013523,0.002678,0.000431,0.003526
39419000,0.0324,0.013523,0.002678,0.000431,0.003173
39420000,0.0324,0.013523,0.002678,0.000431,0.002821
39421000,0.0324,0.013523,0.002678,0.000431,0.003291
39422000,0.0324,0.013523,0.002678,0.000431,0.002821
39423000,0.0324,0.013523,0.002678,0.000431,0.003761
39424000,0.0324,0.013523,0.002678,0.000431,0.002586
39425000,0.0324,0.013523,0.002678,0.000431,0.003173
39426000,0.0324,0.013523,0.002678,0.000431,0.003291
39427000,0.0324,0.013523,0.002678,0.000431,0.003056
39428000,0.0324,0.013523,0.002678,0.000431,0.003408
39429000,0.0324,0.013523,0.002678,0.000431,0.002703
39430000,0.0324,0.013523,0.002678,0.000431,0.003408
39431000,0.0324,0.013523,0.002678,0.000431,0.002821
39432000,0.0324,0.013523,0.002678,0.000431,0.003291
39433000,0.0324,0.013523,0.002678,0.000431,0.005289
39434000,0.0324,0.013523,0.002678,0.000431,0.002468
39435000,0.0324,0.013523,0.002678,0.000431,0.002116
39436000,0.0324,0.013523,0.002678,0.000431,0.000940
39437000,0.0324,0.013523,0.002678,0.000431,0.000940
39438000,0.0324,0.013523,0.002678,0.000431,0.000705
39439000,0.0324,0.013523,0.002678,0.000431,0.000940
39440000,0.0324,0.013523,0.002678,0.000431,0.000940
39441000,0.0324,0.013523,0.002678,0.000431,0.000823
39442000,0.0324,0.013523,0.002678,0.000431,0.000940
39443000,0.0324,0.013523,0.002678,0.000431,0.000823
39444000,0.0324,0.013523,0.002678,0.000431,0.000940
39445000,0.0324,0.013523,0.002678,0.000431,0.000823
39446000,0.0324,0.013523,0.002678,0.000431,0.000823
39447000,0.0324,0.013523,0.002678,0.000431,0.000940
39448000,0.0324,0.013523,0.002678,0.000431,0.000823
39449000,0.0324,0.013523,0.002678,0.000431,0.000940
39450000,0.0324,0.013523,0.002678,0.000431,0.000823
39451000,0.0324,0.013523,0.002678,0.000431,0.000940
39452000,0.0324,0.013523,0.002678,0.000431,0.000940
39453000,0.0324,0.013523,0.002678,0.000431,0.000705
39454000,0.0324,0.013523,0.002678,0.000431,0.000940
39455000,0.0324,0.013523,0.002678,0.000431,0.000940
39456000,0.0324,0.013523,0.002678,0.000431,0.135980
39457000,0.0324,0.013523,0.002678,0.000431,0.491150
39458000,0.0324,0.013523,0.002678,0.000431,0.530522
39459000,0.0324,0.013523,0.002678,0.000431,0.133982
39460000,0.0324,0.013523,0.002678,0.000431,0.132102
39461000,0.0324,0.013523,0.002678,0.000431,0.558141
39462000,0.0324,0.013523,0.002678,0.000431,0.238935
39463000,0.0324,0.013523,0.002678,0.000431,0.266907
39464000,0.0324,0.013523,0.002678,0.000431,0.315328
39465000,0.0324,0.013523,0.002678,0.000431,0.137273
39466000,0.0324,0.013523,0.002678,0.000431,0.154197
39467000,0.0324,0.013523,0.002678,0.000431,0.097431
39468000,0.0324,0.013523,0.002678,0.000431,0.404062
39469000,0.0324,0.013523,0.002678,0.000431,0.222363
39470000,0.0324,0.013523,0.002678,0.000431,0.049127
39471000,0.0324,0.013523,0.002678,0.000431,0.038432
39472000,0.0324,0.013523,0.002678,0.000431,0.031733
39473000,0.0324,0.013523,0.002678,0.000431,0.024916
39474000,0.0324,0.013523,0.002678,0.000431,0.019157
39475000,0.0324,0.013523,0.002678,0.000431,0.014691
39476000,0.0324,0.013523,0.002678,0.000431,0.015279
39477000,0.0324,0.013523,0.002678,0.000431,0.013868
39478000,0.0324,0.013523,0.002678,0.000431,0.013516
39479000,0.0324,0.013523,0.002678,0.000431,0.012928
39480000,0.0324,0.013523,0.002678,0.000431,0.014926
39481000,0.0324,0.013523,0.002678,0.000431,0.010342
39482000,0.0324,0.013523,0.002678,0.000431,0.007404
39483000,0.0324,0.013523,0.002678,0.000431,0.007169
39484000,0.0324,0.013523,0.002678,0.000431,0.007639
39485000,0.0324,0.013523,0.002678,0.000431,0.008345
39486000,0.0324,0.013523,0.002678,0.000431,0.006582
39487000,0.0324,0.013523,0.002678,0.000431,0.006582
39488000,0.0324,0.013523,0.002678,0.000431,0.006582
39489000,0.0324,0.013523,0.002678,0.000431,0.005289
39490000,0.0324,0.013523,0.002678,0.000431,0.007287
39491000,0.0324,0.013523,0.002678,0.000431,0.005641
39492000,0.0324,0.013523,0.002678,0.000431,0.006582
39493000,0.0324,0.013523,0.002678,0.000431,0.006111
39494000,0.0324,0.013523,0.002678,0.000431,0.006229
39495000,0.0324,0.013523,0.002678,0.000431,0.006111
39496000,0.0324,0.013523,0.002678,0.000431,0.006464
39497000,0.0324,0.013523,0.002678,0.000431,0.005994
39498000,0.0324,0.013523,0.002678,0.000431,0.006582
39499000,0.0324,0.013523,0.002678,0.000431,0.006582
39500000,0.0324,0.013523,0.002678,0.000431,0.005876
39501000,0.0324,0.013523,0.002678,0.000431,0.009402
39502000,0.0324,0.013523,0.002678,0.000431,0.005641
39503000,0.0324,0.013523,0.002678,0.000431,0.004349
39504000,0.0324,0.013523,0.002678,0.000431,0.005994
39505000,0.0324,0.013523,0.002678,0.000431,0.005289
39506000,0.0324,0.013523,0.002678,0.000431,0.005759
39507000,0.0324,0.013523,0.002678,0.000431,0.005406
39508000,0.0324,0.013523,0.002678,0.000431,0.005171
39509000,0.0324,0.013523,0.002678,0.000431,0.006229
39510000,0.0324,0.013523,0.002678,0.000431,0.005406
39511000,0.0324,0.013523,0.002678,0.000431,0.005641
39512000,0.0324,0.013523,0.002678,0.000431,0.005759
39513000,0.0324,0.013523,0.002678,0.000431,0.005289
39514000,0.0324,0.013523,0.002678,0.000431,0.005759
39515000,0.0324,0.013523,0.002678,0.000431,0.005406
39516000,0.0324,0.013523,0.002678,0.000431,0.005641
39517000,0.0324,0.013523,0.002678,0.000431,0.006229
39518000,0.0324,0.013523,0.002678,0.000431,0.004819
39519000,0.0324,0.013523,0.002678,0.000431,0.006111
39520000,0.0324,0.013523,0.002678,0.000431,0.005406
39521000,0.0324,0.013523,0.002678,0.000431,0.006111
39522000,0.0324,0.013523,0.002678,0.000431,0.005054
39523000,0.0324,0.013523,0.002678,0.000431,0.005524
39524000,0.0324,0.013523,0.002678,0.000431,0.006229
39525000,0.0324,0.013523,0.002678,0.000431,0.005524
39526000,0.0324,0.013523,0.002678,0.000431,0.005054
39527000,0.0324,0.013523,0.002678,0.000431,0.005524
39528000,0.0324,0.013523,0.002678,0.000431,0.005994
39529000,0.0324,0.013523,0.002678,0.000431,0.008462
39530000,0.0324,0.013523,0.002678,0.000431,0.003643
39531000,0.0324,0.013523,0.002678,0.000431,0.002703
39532000,0.0324,0.013523,0.002678,0.000431,0.005289
39533000,0.0324,0.013523,0.002678,0.000431,0.001998
39534000,0.0324,0.013523,0.002678,0.000431,0.002703
39535000,0.0324,0.013523,0.002678,0.000431,0.002468
39536000,0.0324,0.013523,0.002678,0.000431,0.002233
39537000,0.0324,0.013523,0.002678,0.000431,0.002468
39538000,0.0324,0.013523,0.002678,0.000431,0.002351
39539000,0.0324,0.013523,0.002678,0.000431,0.002351
39540000,0.0324,0.013523,0.002678,0.000431,0.002468
39541000,0.0324,0.013523,0.002678,0.000431,0.002586
39542000,0.0324,0.013523,0.002678,0.000431,0.002116
39543000,0.0324,0.013523,0.002678,0.000431,0.002468
39544000,0.0324,0.013523,0.002678,0.000431,0.001998
39545000,0.0324,0.013523,0.002678,0.000431,0.002586
39546000,0.0324,0.013523,0.002678,0.000431,0.001998
39547000,0.0324,0.013523,0.002678,0.000431,0.001998
39548000,0.0324,0.013523,0.002678,0.000431,0.002821
39549000,0.0324,0.013523,0.002678,0.000431,0.001998
39550000,0.0324,0.013523,0.002678,0.000431,0.001998
39551000,0.0324,0.013523,0.002678,0.000431,0.002468
39552000,0.0324,0.013523,0.002678,0.000431,0.002233
39553000,0.0324,0.013523,0.002678,0.000431,0.002116
39554000,0.0324,0.013523,0.002678,0.000431,0.002468
39555000,0.0324,0.013523,0.002678,0.000431,0.001763
39556000,0.0324,0.013523,0.002678,0.000431,0.002586
39557000,0.0324,0.013523,0.002678,0.000431,0.002351
39558000,0.0324,0.013523,0.002678,0.000431,0.001645
39559000,0.0324,0.013523,0.002678,0.000431,0.002821
39560000,0.0324,0.013523,0.002678,0.000431,0.002116
39561000,0.0324,0.013523,0.002678,0.000431,0.001880
39562000,0.0324,0.013523,0.002678,0.000431,0.002821
39563000,0.0324,0.013523,0.002678,0.000431,0.001880
39564000,0.0324,0.013523,0.002678,0.000431,0.002116
39565000,0.0324,0.013523,0.002678,0.000431,0.002468
39566000,0.0324,0.013523,0.002678,0.000431,0.001763
39567000,0.0324,0.013523,0.002678,0.000431,0.002586
39568000,0.0324,0.013523,0.002678,0.000431,0.002351
39569000,0.0324,0.013523,0.002678,0.000431,0.001645
39570000,0.0324,0.013523,0.002678,0.000431,0.002821
39571000,0.0324,0.013523,0.002678,0.000431,0.002351
39572000,0.0324,0.013523,0.002678,0.000431,0.001645
39573000,0.0324,0.013523,0.002678,0.000431,0.002821
39574000,0.0324,0.013523,0.002678,0.000431,0.001880
39575000,0.0324,0.013523,0.002678,0.000431,0.002116
39576000,0.0324,0.013523,0.002678,0.000431,0.002586
39577000,0.0324,0.013523,0.002678,0.000431,0.001645
39578000,0.0324,0.013523,0.002678,0.000431,0.002586
39579000,0.0324,0.013523,0.002678,0.000431,0.002351
39580000,0.0324,0.013523,0.002678,0.000431,0.001645
39581000,0.0324,0.013523,0.002678,0.000431,0.002821
39582000,0.0324,0.013523,0.002678,0.000431,0.002351
39583000,0.0324,0.013523,0.002678,0.000431,0.001645
39584000,0.0324,0.013523,0.002678,0.000431,0.002821
39585000,0.0324,0.013523,0.002678,0.000431,0.001880
39586000,0.0324,0.013523,0.002678,0.000431,0.002116
39587000,0.0324,0.013523,0.002678,0.000431,0.002586
39588000,0.0324,0.013523,0.002678,0.000431,0.001645
39589000,0.0324,0.013523,0.002678,0.000431,0.002586
39590000,0.0324,0.013523,0.002678,0.000431,0.002351
39591000,0.0324,0.013523,0.002678,0.000431,0.001998
39592000,0.0324,0.013523,0.002678,0.000431,0.002468
39593000,0.0324,0.013523,0.002678,0.000431,0.002351
39594000,0.0324,0.013523,0.002678,0.000431,0.001645
39595000,0.0324,0.013523,0.002678,0.000431,0.002821
39596000,0.0324,0.013523,0.002678,0.000431,0.001880
39597000,0.0324,0.013523,0.002678,0.000431,0.002116
39598000,0.0324,0.013523,0.002678,0.000431,0.002586
39599000,0.0324,0.013523,0.002678,0.000431,0.001645
39600000,0.0324,0.013523,0.002678,0.000431,0.002586
39601000,0.0324,0.013523,0.002678,0.000431,0.002351
39602000,0.0324,0.013523,0.002678,0.000431,0.001998
39603000,0.0324,0.013523,0.002678,0.000431,0.002468
39604000,0.0324,0.013523,0.002678,0.000431,0.002351
39605000,0.0324,0.013523,0.002678,0.000431,0.001880
39606000,0.0324,0.013523,0.002678,0.000431,0.002586
39607000,0.0324,0.013523,0.002678,0.000431,0.001528
39608000,0.0324,0.013523,0.002678,0.000431,0.000823
39609000,0.0324,0.013523,0.002678,0.000431,0.000940
39610000,0.0324,0.013523,0.002678,0.000431,0.000823
39611000,0.0324,0.013523,0.002678,0.000431,0.000823
39612000,0.0324,0.013523,0.002678,0.000431,0.000705
39613000,0.0324,0.013523,0.002678,0.000431,0.000940
39614000,0.0324,0.013523,0.002678,0.000431,0.000940
39615000,0.0324,0.013523,0.002678,0.000431,0.000705
39616000,0.0324,0.013523,0.002678,0.000431,0.000940
39617000,0.0324,0.013523,0.002678,0.000431,0.000705
39618000,0.0324,0.013523,0.002678,0.000431,0.000940
39619000,0.0324,0.013523,0.002678,0.000431,0.000705
39620000,0.0324,0.013523,0.002678,0.000431,0.000940
39621000,0.0324,0.013523,0.002678,0.000431,0.000705
39622000,0.0324,0.013523,0.002678,0.000431,0.000940
39623000,0.0324,0.013523,0.002678,0.000431,0.000940
39624000,0.0324,0.013523,0.002678,0.000431,0.000705
39625000,0.0324,0.013523,0.002678,0.000431,0.000940
39626000,0.0324,0.013523,0.002678,0.000431,0.000705
39627000,0.0324,0.013523,0.002678,0.000431,0.000940
39628000,0.0324,0.013523,0.002678,0.000431,0.176057
39629000,0.0324,0.013523,0.002678,0.000431,0.480455
39630000,0.0324,0.013523,0.002678,0.000431,0.528054
39631000,0.0324,0.013523,0.002678,0.000431,0.134217
39632000,0.0324,0.013523,0.002678,0.000431,0.132572
39633000,0.0324,0.013523,0.002678,0.000431,0.568954
39634000,0.0324,0.013523,0.002678,0.000431,0.244224
39635000,0.0324,0.013523,0.002678,0.000431,0.266084
39636000,0.0324,0.013523,0.002678,0.000431,0.311097
39637000,0.0324,0.013523,0.002678,0.000431,0.142914
39638000,0.0324,0.013523,0.002678,0.000431,0.180171
39639000,0.0324,0.013523,0.002678,0.000431,0.084738
39640000,0.0324,0.013523,0.002678,0.000431,0.468467
39641000,0.0324,0.013523,0.002678,0.000431,0.089792
39642000,0.0324,0.013523,0.002678,0.000431,0.052535
39643000,0.0324,0.013523,0.002678,0.000431,0.039137
39644000,0.0324,0.013523,0.002678,0.000431,0.037256
39645000,0.0324,0.013523,0.002678,0.000431,0.028559
39646000,0.0324,0.013523,0.002678,0.000431,0.028324
39647000,0.0324,0.013523,0.002678,0.000431,0.013751
39648000,0.0324,0.013523,0.002678,0.000431,0.015866
39649000,0.0324,0.013523,0.002678,0.000431,0.011400
39650000,0.0324,0.013523,0.002678,0.000431,0.008580
39651000,0.0324,0.013523,0.002678,0.000431,0.010578
39652000,0.0324,0.013523,0.002678,0.000431,0.006464
39653000,0.0324,0.013523,0.002678,0.000431,0.005759
39654000,0.0324,0.013523,0.002678,0.000431,0.007874
39655000,0.0324,0.013523,0.002678,0.000431,0.005171
39656000,0.0324,0.013523,0.002678,0.000431,0.007639
39657000,0.0324,0.013523,0.002678,0.000431,0.004113
39658000,0.0324,0.013523,0.002678,0.000431,0.004349
39659000,0.0324,0.013523,0.002678,0.000431,0.004701
39660000,0.0324,0.013523,0.002678,0.000431,0.004584
39661000,0.0324,0.013523,0.002678,0.000431,0.003996
39662000,0.0324,0.013523,0.002678,0.000431,0.004584
39663000,0.0324,0.013523,0.002678,0.000431,0.004584
39664000,0.0324,0.013523,0.002678,0.000431,0.004466
39665000,0.0324,0.013523,0.002678,0.000431,0.005759
39666000,0.0324,0.013523,0.002678,0.000431,0.003761
39667000,0.0324,0.013523,0.002678,0.000431,0.003761
39668000,0.0324,0.013523,0.002678,0.000431,0.003526
39669000,0.0324,0.013523,0.002678,0.000431,0.004701
39670000,0.0324,0.013523,0.002678,0.000431,0.002821
39671000,0.0324,0.013523,0.002678,0.000431,0.002938
39672000,0.0324,0.013523,0.002678,0.000431,0.002468
39673000,0.0324,0.013523,0.002678,0.000431,0.002703
39674000,0.0324,0.013523,0.002678,0.000431,0.002821
39675000,0.0324,0.013523,0.002678,0.000431,0.002586
39676000,0.0324,0.013523,0.002678,0.000431,0.002938
39677000,0.0324,0.013523,0.002678,0.000431,0.002586
39678000,0.0324,0.013523,0.002678,0.000431,0.002821
39679000,0.0324,0.013523,0.002678,0.000431,0.002586
39680000,0.0324,0.013523,0.002678,0.000431,0.003996
39681000,0.0324,0.013523,0.002678,0.000431,0.001998
39682000,0.0324,0.013523,0.002678,0.000431,0.001880
39683000,0.0324,0.013523,0.002678,0.000431,0.002116
39684000,0.0324,0.013523,0.002678,0.000431,0.001410
39685000,0.0324,0.013523,0.002678,0.000431,0.001998
39686000,0.0324,0.013523,0.002678,0.000431,0.001998
39687000,0.0324,0.013523,0.002678,0.000431,0.001645
39688000,0.0324,0.013523,0.002678,0.000431,0.001880
39689000,0.0324,0.013523,0.002678,0.000431,0.001880
39690000,0.0324,0.013523,0.002678,0.000431,0.001998
39691000,0.0324,0.013523,0.002678,0.000431,0.001763
39692000,0.0324,0.013523,0.002678,0.000431,0.001763
39693000,0.0324,0.013523,0.002678,0.000431,0.001998
39694000,0.0324,0.013523,0.002678,0.000431,0.002938
39695000,0.0324,0.013523,0.002678,0.000431,0.160191
39696000,0.0324,0.013523,0.002678,0.000431,0.459535
39697000,0.0324,0.013523,0.002678,0.000431,0.534283
39698000,0.0324,0.013523,0.002678,0.000431,0.132572
39699000,0.0324,0.013523,0.002678,0.000431,0.133512
39700000,0.0324,0.013523,0.002678,0.000431,0.579531
39701000,0.0324,0.013523,0.002678,0.000431,0.276426
39702000,0.0324,0.013523,0.002678,0.000431,0.229533
39703000,0.0324,0.013523,0.002678,0.000431,0.297934
39704000,0.0324,0.013523,0.002678,0.000431,0.137626
39705000,0.0324,0.013523,0.002678,0.000431,0.153139
39706000,0.0324,0.013523,0.002678,0.000431,0.105775
39707000,0.0324,0.013523,0.002678,0.000431,0.398773
39708000,0.0324,0.013523,0.002678,0.000431,0.200738
39709000,0.0324,0.013523,0.002678,0.000431,0.038197
39710000,0.0324,0.013523,0.002678,0.000431,0.030792
39711000,0.0324,0.013523,0.002678,0.000431,0.030440
39712000,0.0324,0.013523,0.002678,0.000431,0.023858
39713000,0.0324,0.013523,0.002678,0.000431,0.021155
39714000,0.0324,0.013523,0.002678,0.000431,0.018922
39715000,0.0324,0.013523,0.002678,0.000431,0.017982
39716000,0.0324,0.013523,0.002678,0.000431,0.014338
39717000,0.0324,0.013523,0.002678,0.000431,0.012105
39718000,0.0324,0.013523,0.002678,0.000431,0.010460
39719000,0.0324,0.013523,0.002678,0.000431,0.013046
39720000,0.0324,0.013523,0.002678,0.000431,0.013633
39721000,0.0324,0.013523,0.002678,0.000431,0.011165
39722000,0.0324,0.013523,0.002678,0.000431,0.008697
39723000,0.0324,0.013523,0.002678,0.000431,0.006817
39724000,0.0324,0.013523,0.002678,0.000431,0.007639
39725000,0.0324,0.013523,0.002678,0.000431,0.006347
39726000,0.0324,0.013523,0.002678,0.000431,0.006817
39727000,0.0324,0.013523,0.002678,0.000431,0.007404
39728000,0.0324,0.013523,0.002678,0.000431,0.005759
39729000,0.0324,0.013523,0.002678,0.000431,0.007287
39730000,0.0324,0.013523,0.002678,0.000431,0.006582
39731000,0.0324,0.013523,0.002678,0.000431,0.007052
39732000,0.0324,0.013523,0.002678,0.000431,0.007404
39733000,0.0324,0.013523,0.002678,0.000431,0.007052
39734000,0.0324,0.013523,0.002678,0.000431,0.005641
39735000,0.0324,0.013523,0.002678,0.000431,0.005171
39736000,0.0324,0.013523,0.002678,0.000431,0.005524
39737000,0.0324,0.013523,0.002678,0.000431,0.005524
39738000,0.0324,0.013523,0.002678,0.000431,0.005289
39739000,0.0324,0.013523,0.002678,0.000431,0.005524
39740000,0.0324,0.013523,0.002678,0.000431,0.005524
39741000,0.0324,0.013523,0.002678,0.000431,0.007287
39742000,0.0324,0.013523,0.002678,0.000431,0.005406
39743000,0.0324,0.013523,0.002678,0.000431,0.003643
39744000,0.0324,0.013523,0.002678,0.000431,0.005289
39745000,0.0324,0.013523,0.002678,0.000431,0.004466
39746000,0.0324,0.013523,0.002678,0.000431,0.004349
39747000,0.0324,0.013523,0.002678,0.000431,0.004701
39748000,0.0324,0.013523,0.002678,0.000431,0.006229
39749000,0.0324,0.013523,0.002678,0.000431,0.004231
39750000,0.0324,0.013523,0.002678,0.000431,0.003056
39751000,0.0324,0.013523,0.002678,0.000431,0.003761
39752000,0.0324,0.013523,0.002678,0.000431,0.003526
39753000,0.0324,0.013523,0.002678,0.000431,0.003056
39754000,0.0324,0.013523,0.002678,0.000431,0.004231
39755000,0.0324,0.013523,0.002678,0.000431,0.003291
39756000,0.0324,0.013523,0.002678,0.000431,0.003526
39757000,0.0324,0.013523,0.002678,0.000431,0.003526
39758000,0.0324,0.013523,0.002678,0.000431,0.002938
39759000,0.0324,0.013523,0.002678,0.000431,0.004113
39760000,0.0324,0.013523,0.002678,0.000431,0.003526
39761000,0.0324,0.013523,0.002678,0.000431,0.003291
39762000,0.0324,0.013523,0.002678,0.000431,0.003761
39763000,0.0324,0.013523,0.002678,0.000431,0.003173
39764000,0.0324,0.013523,0.002678,0.000431,0.004113
39765000,0.0324,0.013523,0.002678,0.000431,0.003291
39766000,0.0324,0.013523,0.002678,0.000431,0.003291
39767000,0.0324,0.013523,0.002678,0.000431,0.003761
39768000,0.0324,0.013523,0.002678,0.000431,0.004584
39769000,0.0324,0.013523,0.002678,0.000431,0.003526
39770000,0.0324,0.013523,0.002678,0.000431,0.001998
39771000,0.0324,0.013523,0.002678,0.000431,0.001880
39772000,0.0324,0.013523,0.002678,0.000431,0.002351
39773000,0.0324,0.013523,0.002678,0.000431,0.003291
39774000,0.0324,0.013523,0.002678,0.000431,0.191453
39775000,0.0324,0.013523,0.002678,0.000431,0.448840
39776000,0.0324,0.013523,0.002678,0.000431,0.509837
39777000,0.0324,0.013523,0.002678,0.000431,0.134100
39778000,0.0324,0.013523,0.002678,0.000431,0.131984
39779000,0.0324,0.013523,0.002678,0.000431,0.584468
39780000,0.0324,0.013523,0.002678,0.000431,0.249630
39781000,0.0324,0.013523,0.002678,0.000431,0.295231
39782000,0.0324,0.013523,0.002678,0.000431,0.272783
39783000,0.0324,0.013523,0.002678,0.000431,0.142209
39784000,0.0324,0.013523,0.002678,0.000431,0.153727
39785000,0.0324,0.013523,0.002678,0.000431,0.101779
39786000,0.0324,0.013523,0.002678,0.000431,0.429095
39787000,0.0324,0.013523,0.002678,0.000431,0.125638
39788000,0.0324,0.013523,0.002678,0.000431,0.017982
39789000,0.0324,0.013523,0.002678,0.000431,0.018334
39790000,0.0324,0.013523,0.002678,0.000431,0.016219
39791000,0.0324,0.013523,0.002678,0.000431,0.010578
39792000,0.0324,0.013523,0.002678,0.000431,0.012340
39793000,0.0324,0.013523,0.002678,0.000431,0.008580
39794000,0.0324,0.013523,0.002678,0.000431,0.008345
39795000,0.0324,0.013523,0.002678,0.000431,0.010342
39796000,0.0324,0.013523,0.002678,0.000431,0.008697
39797000,0.0324,0.013523,0.002678,0.000431,0.010695
39798000,0.0324,0.013523,0.002678,0.000431,0.005876
39799000,0.0324,0.013523,0.002678,0.000431,0.005524
39800000,0.0324,0.013523,0.002678,0.000431,0.005524
39801000,0.0324,0.013523,0.002678,0.000431,0.007522
39802000,0.0324,0.013523,0.002678,0.000431,0.004584
39803000,0.0324,0.013523,0.002678,0.000431,0.005054
39804000,0.0324,0.013523,0.002678,0.000431,0.004701
39805000,0.0324,0.013523,0.002678,0.000431,0.004819
39806000,0.0324,0.013523,0.002678,0.000431,0.004584
39807000,0.0324,0.013523,0.002678,0.000431,0.004819
39808000,0.0324,0.013523,0.002678,0.000431,0.004936
39809000,0.0324,0.013523,0.002678,0.000431,0.004466
39810000,0.0324,0.013523,0.002678,0.000431,0.005171
39811000,0.0324,0.013523,0.002678,0.000431,0.006934
39812000,0.0324,0.013523,0.002678,0.000431,0.003996
39813000,0.0324,0.013523,0.002678,0.000431,0.003996
39814000,0.0324,0.013523,0.002678,0.000431,0.003643
39815000,0.0324,0.013523,0.002678,0.000431,0.004349
39816000,0.0324,0.013523,0.002678,0.000431,0.003526
39817000,0.0324,0.013523,0.002678,0.000431,0.003408
39818000,0.0324,0.013523,0.002678,0.000431,0.005289
39819000,0.0324,0.013523,0.002678,0.000431,0.002351
39820000,0.0324,0.013523,0.002678,0.000431,0.002468
39821000,0.0324,0.013523,0.002678,0.000431,0.002351
39822000,0.0324,0.013523,0.002678,0.000431,0.002233
39823000,0.0324,0.013523,0.002678,0.000431,0.001528
39824000,0.0324,0.013523,0.002678,0.000431,0.001880
39825000,0.0324,0.013523,0.002678,0.000431,0.001763
39826000,0.0324,0.013523,0.002678,0.000431,0.001528
39827000,0.0324,0.013523,0.002678,0.000431,0.001763
39828000,0.0324,0.013523,0.002678,0.000431,0.001763
39829000,0.0324,0.013523,0.002678,0.000431,0.001880
39830000,0.0324,0.013523,0.002678,0.000431,0.001410
39831000,0.0324,0.013523,0.002678,0.000431,0.001880
39832000,0.0324,0.013523,0.002678,0.000431,0.001763
39833000,0.0324,0.013523,0.002678,0.000431,0.001645
39834000,0.0324,0.013523,0.002678,0.000431,0.001645
39835000,0.0324,0.013523,0.002678,0.000431,0.001763
39836000,0.0324,0.013523,0.002678,0.000431,0.001880
39837000,0.0324,0.013523,0.002678,0.000431,0.004701
39838000,0.0324,0.013523,0.002678,0.000431,0.000823
39839000,0.0324,0.013523,0.002678,0.000431,0.000940
39840000,0.0324,0.013523,0.002678,0.000431,0.000823
39841000,0.0324,0.013523,0.002678,0.000431,0.000940
39842000,0.0324,0.013523,0.002678,0.000431,0.000823
39843000,0.0324,0.013523,0.002678,0.000431,0.000940
39844000,0.0324,0.013523,0.002678,0.000431,0.000823
39845000,0.0324,0.013523,0.002678,0.000431,0.000823
39846000,0.0324,0.013523,0.002678,0.000431,0.000940
39847000,0.0324,0.013523,0.002678,0.000431,0.000940
39848000,0.0324,0.013523,0.002678,0.000431,0.000940
39849000,0.0324,0.013523,0.002678,0.000431,0.000705
39850000,0.0324,0.013523,0.002678,0.000431,0.000940
39851000,0.0324,0.013523,0.002678,0.000431,0.000940
39852000,0.0324,0.013523,0.002678,0.000431,0.000823
39853000,0.0324,0.013523,0.002678,0.000431,0.000823
39854000,0.0324,0.013523,0.002678,0.000431,0.000940
39855000,0.0324,0.013523,0.002678,0.000431,0.000823
39856000,0.0324,0.013523,0.002678,0.000431,0.000940
39857000,0.0324,0.013523,0.002678,0.000431,0.000823
39858000,0.0324,0.013523,0.002678,0.000431,0.000940
39859000,0.0324,0.013523,0.002678,0.000431,0.000823
39860000,0.0324,0.013523,0.002678,0.000431,0.000823
39861000,0.0324,0.013523,0.002678,0.000431,0.000940
39862000,0.0324,0.013523,0.002678,0.000431,0.000940
39863000,0.0324,0.013523,0.002678,0.000431,0.000823
39864000,0.0324,0.013523,0.002678,0.000431,0.000823
39865000,0.0324,0.013523,0.002678,0.000431,0.000940
39866000,0.0324,0.013523,0.002678,0.000431,0.000940
39867000,0.0324,0.013523,0.002678,0.000431,0.000705
39868000,0.0324,0.013523,0.002678,0.000431,0.000940
39869000,0.0324,0.013523,0.002678,0.000431,0.000940
39870000,0.0324,0.013523,0.002678,0.000431,0.000940
39871000,0.0324,0.013523,0.002678,0.000431,0.000823
39872000,0.0324,0.013523,0.002678,0.000431,0.000823
39873000,0.0324,0.013523,0.002678,0.000431,0.000940
39874000,0.0324,0.013523,0.002678,0.000431,0.000823
39875000,0.0324,0.013523,0.002678,0.000431,0.000940
39876000,0.0324,0.013523,0.002678,0.000431,0.000823
39877000,0.0324,0.013523,0.002678,0.000431,0.000940
39878000,0.0324,0.013523,0.002678,0.000431,0.000823
39879000,0.0324,0.013523,0.002678,0.000431,0.000823
39880000,0.0324,0.013523,0.002678,0.000431,0.000940
39881000,0.0324,0.013523,0.002678,0.000431,0.000940
39882000,0.0324,0.013523,0.002678,0.000431,0.000823
39883000,0.0324,0.013523,0.002678,0.000431,0.000823
39884000,0.0324,0.013523,0.002678,0.000431,0.000940
39885000,0.0324,0.013523,0.002678,0.000431,0.000940
39886000,0.0324,0.013523,0.002678,0.000431,0.000705
39887000,0.0324,0.013523,0.002678,0.000431,0.000940
39888000,0.0324,0.013523,0.002678,0.000431,0.000940
39889000,0.0324,0.013523,0.002678,0.000431,0.000940
39890000,0.0324,0.013523,0.002678,0.000431,0.000705
39891000,0.0324,0.013523,0.002678,0.000431,0.000940
39892000,0.0324,0.013523,0.002678,0.000431,0.000940
39893000,0.0324,0.013523,0.002678,0.000431,0.000823
39894000,0.0324,0.013523,0.002678,0.000431,0.000823
39895000,0.0324,0.013523,0.002678,0.000431,0.000940
39896000,0.0324,0.013523,0.002678,0.000431,0.000940
39897000,0.0324,0.013523,0.002678,0.000431,0.000823
39898000,0.0324,0.013523,0.002678,0.000431,0.000823
39899000,0.0324,0.013523,0.002678,0.000431,0.000940
39900000,0.0324,0.013523,0.002678,0.000431,0.000823
39901000,0.0324,0.013523,0.002678,0.000431,0.000823
39902000,0.0324,0.013523,0.002678,0.000431,0.000940
39903000,0.0324,0.013523,0.002678,0.000431,0.000940
39904000,0.0324,0.013523,0.002678,0.000431,0.000823
39905000,0.0324,0.013523,0.002678,0.000431,0.000823
39906000,0.0324,0.013523,0.002678,0.000431,0.000940
39907000,0.0324,0.013523,0.002678,0.000431,0.000940
39908000,0.0324,0.013523,0.002678,0.000431,0.000823
39909000,0.0324,0.013523,0.002678,0.000431,0.000823
39910000,0.0324,0.013523,0.002678,0.000431,0.000940
39911000,0.0324,0.013523,0.002678,0.000431,0.000940
39912000,0.0324,0.013523,0.002678,0.000431,0.000823
39913000,0.0324,0.013523,0.002678,0.000431,0.000823
39914000,0.0324,0.013523,0.002678,0.000431,0.000940
39915000,0.0324,0.013523,0.002678,0.000431,0.000823
39916000,0.0324,0.013523,0.002678,0.000431,0.000940
39917000,0.0324,0.013523,0.002678,0.000431,0.000823
39918000,0.0324,0.013523,0.002678,0.000431,0.000940
39919000,0.0324,0.013523,0.002678,0.000431,0.000823
39920000,0.0324,0.013523,0.002678,0.000431,0.000823
39921000,0.0324,0.013523,0.002678,0.000431,0.000940
39922000,0.0324,0.013523,0.002678,0.000431,0.000940
39923000,0.0324,0.013523,0.002678,0.000431,0.000823
39924000,0.0324,0.013523,0.002678,0.000431,0.000823
39925000,0.0324,0.013523,0.002678,0.000431,0.000940
39926000,0.0324,0.013523,0.002678,0.000431,0.002116
39927000,0.0324,0.013523,0.002678,0.000431,0.304868
39928000,0.0324,0.013523,0.002678,0.000431,0.636533
39929000,0.0324,0.013523,0.002678,0.000431,0.210493
39930000,0.0324,0.013523,0.002678,0.000431,0.131161
39931000,0.0324,0.013523,0.002678,0.000431,0.134922
39932000,0.0324,0.013523,0.002678,0.000431,0.612909
39933000,0.0324,0.013523,0.002678,0.000431,0.263733
39934000,0.0324,0.013523,0.002678,0.000431,0.240580
39935000,0.0324,0.013523,0.002678,0.000431,0.237289
39936000,0.0324,0.013523,0.002678,0.000431,0.135040
39937000,0.0324,0.013523,0.002678,0.000431,0.143619
39938000,0.0324,0.013523,0.002678,0.000431,0.128106
39939000,0.0324,0.013523,0.002678,0.000431,0.308511
39940000,0.0324,0.013523,0.002678,0.000431,0.269845
39941000,0.0324,0.013523,0.002678,0.000431,0.032555
39942000,0.0324,0.013523,0.002678,0.000431,0.026444
39943000,0.0324,0.013523,0.002678,0.000431,0.022683
39944000,0.0324,0.013523,0.002678,0.000431,0.025621
39945000,0.0324,0.013523,0.002678,0.000431,0.017982
39946000,0.0324,0.013523,0.002678,0.000431,0.012223
39947000,0.0324,0.013523,0.002678,0.000431,0.012928
39948000,0.0324,0.013523,0.002678,0.000431,0.012693
39949000,0.0324,0.013523,0.002678,0.000431,0.013163
39950000,0.0324,0.013523,0.002678,0.000431,0.013163
39951000,0.0324,0.013523,0.002678,0.000431,0.010930
39952000,0.0324,0.013523,0.002678,0.000431,0.011165
39953000,0.0324,0.013523,0.002678,0.000431,0.010813
39954000,0.0324,0.013523,0.002678,0.000431,0.009637
39955000,0.0324,0.013523,0.002678,0.000431,0.009285
39956000,0.0324,0.013523,0.002678,0.000431,0.008227
39957000,0.0324,0.013523,0.002678,0.000431,0.006699
39958000,0.0324,0.013523,0.002678,0.000431,0.007052
39959000,0.0324,0.013523,0.002678,0.000431,0.006934
39960000,0.0324,0.013523,0.002678,0.000431,0.006582
39961000,0.0324,0.013523,0.002678,0.000431,0.007169
39962000,0.0324,0.013523,0.002678,0.000431,0.007052
39963000,0.0324,0.013523,0.002678,0.000431,0.006817
39964000,0.0324,0.013523,0.002678,0.000431,0.006817
39965000,0.0324,0.013523,0.002678,0.000431,0.008227
39966000,0.0324,0.013523,0.002678,0.000431,0.006111
39967000,0.0324,0.013523,0.002678,0.000431,0.006111
39968000,0.0324,0.013523,0.002678,0.000431,0.005524
39969000,0.0324,0.013523,0.002678,0.000431,0.006582
39970000,0.0324,0.013523,0.002678,0.000431,0.006111
39971000,0.0324,0.013523,0.002678,0.000431,0.006934
39972000,0.0324,0.013523,0.002678,0.000431,0.005524
39973000,0.0324,0.013523,0.002678,0.000431,0.005289
39974000,0.0324,0.013523,0.002678,0.000431,0.005289
39975000,0.0324,0.013523,0.002678,0.000431,0.004936
39976000,0.0324,0.013523,0.002678,0.000431,0.005289
39977000,0.0324,0.013523,0.002678,0.000431,0.005524
39978000,0.0324,0.013523,0.002678,0.000431,0.004819
39979000,0.0324,0.013523,0.002678,0.000431,0.005289
39980000,0.0324,0.013523,0.002678,0.000431,0.005406
39981000,0.0324,0.013523,0.002678,0.000431,0.005289
39982000,0.0324,0.013523,0.002678,0.000431,0.005171
39983000,0.0324,0.013523,0.002678,0.000431,0.004819
39984000,0.0324,0.013523,0.002678,0.000431,0.005641
39985000,0.0324,0.013523,0.002678,0.000431,0.005171
39986000,0.0324,0.013523,0.002678,0.000431,0.005171
39987000,0.0324,0.013523,0.002678,0.000431,0.005171
39988000,0.0324,0.013523,0.002678,0.000431,0.005289
39989000,0.0324,0.013523,0.002678,0.000431,0.005289
39990000,0.0324,0.013523,0.002678,0.000431,0.004936
39991000,0.0324,0.013523,0.002678,0.000431,0.005641
39992000,0.0324,0.013523,0.002678,0.000431,0.004936
39993000,0.0324,0.013523,0.002678,0.000431,0.005054
39994000,0.0324,0.013523,0.002678,0.000431,0.005524
39995000,0.0324,0.013523,0.002678,0.000431,0.005171
39996000,0.0324,0.013523,0.002678,0.000431,0.005289
39997000,0.0324,0.013523,0.002678,0.000431,0.004936
39998000,0.0324,0.013523,0.002678,0.000431,0.005406
39999000,0.0324,0.013523,0.002678,0.000431,0.006934
