Cycle,Area(mm^2),PeakDynamic(W),SubthresholdLeakage(W),GateLeakage(W),RunTimeDynamic(W)
80000000,0.0324,0.013523,0.002678,0.000431,0.000705
80001000,0.0324,0.013523,0.002678,0.000431,0.000940
80002000,0.0324,0.013523,0.002678,0.000431,0.000940
80003000,0.0324,0.013523,0.002678,0.000431,0.000940
80004000,0.0324,0.013523,0.002678,0.000431,0.000705
80005000,0.0324,0.013523,0.002678,0.000431,0.000940
80006000,0.0324,0.013523,0.002678,0.000431,0.000940
80007000,0.0324,0.013523,0.002678,0.000431,0.000823
80008000,0.0324,0.013523,0.002678,0.000431,0.000823
80009000,0.0324,0.013523,0.002678,0.000431,0.000940
80010000,0.0324,0.013523,0.002678,0.000431,0.000940
80011000,0.0324,0.013523,0.002678,0.000431,0.000823
80012000,0.0324,0.013523,0.002678,0.000431,0.000823
80013000,0.0324,0.013523,0.002678,0.000431,0.000940
80014000,0.0324,0.013523,0.002678,0.000431,0.000823
80015000,0.0324,0.013523,0.002678,0.000431,0.000940
80016000,0.0324,0.013523,0.002678,0.000431,0.000823
80017000,0.0324,0.013523,0.002678,0.000431,0.000940
80018000,0.0324,0.013523,0.002678,0.000431,0.000823
80019000,0.0324,0.013523,0.002678,0.000431,0.000823
80020000,0.0324,0.013523,0.002678,0.000431,0.000940
80021000,0.0324,0.013523,0.002678,0.000431,0.000940
80022000,0.0324,0.013523,0.002678,0.000431,0.000823
80023000,0.0324,0.013523,0.002678,0.000431,0.000823
80024000,0.0324,0.013523,0.002678,0.000431,0.000940
80025000,0.0324,0.013523,0.002678,0.000431,0.000940
80026000,0.0324,0.013523,0.002678,0.000431,0.000823
80027000,0.0324,0.013523,0.002678,0.000431,0.000823
80028000,0.0324,0.013523,0.002678,0.000431,0.000940
80029000,0.0324,0.013523,0.002678,0.000431,0.000823
80030000,0.0324,0.013523,0.002678,0.000431,0.000940
80031000,0.0324,0.013523,0.002678,0.000431,0.000823
80032000,0.0324,0.013523,0.002678,0.000431,0.000940
80033000,0.0324,0.013523,0.002678,0.000431,0.000823
80034000,0.0324,0.013523,0.002678,0.000431,0.000823
80035000,0.0324,0.013523,0.002678,0.000431,0.000940
80036000,0.0324,0.013523,0.002678,0.000431,0.001763
80037000,0.0324,0.013523,0.002678,0.000431,0.275133
80038000,0.0324,0.013523,0.002678,0.000431,0.587758
80039000,0.0324,0.013523,0.002678,0.000431,0.244576
80040000,0.0324,0.013523,0.002678,0.000431,0.131161
80041000,0.0324,0.013523,0.002678,0.000431,0.134452
80042000,0.0324,0.013523,0.002678,0.000431,0.558964
80043000,0.0324,0.013523,0.002678,0.000431,0.247279
80044000,0.0324,0.013523,0.002678,0.000431,0.222598
80045000,0.0324,0.013523,0.002678,0.000431,0.295231
80046000,0.0324,0.013523,0.002678,0.000431,0.133747
80047000,0.0324,0.013523,0.002678,0.000431,0.148203
80048000,0.0324,0.013523,0.002678,0.000431,0.162659
80049000,0.0324,0.013523,0.002678,0.000431,0.119996
80050000,0.0324,0.013523,0.002678,0.000431,0.462121
80051000,0.0324,0.013523,0.002678,0.000431,0.034671
80052000,0.0324,0.013523,0.002678,0.000431,0.030675
80053000,0.0324,0.013523,0.002678,0.000431,0.024916
80054000,0.0324,0.013523,0.002678,0.000431,0.023976
80055000,0.0324,0.013523,0.002678,0.000431,0.018217
80056000,0.0324,0.013523,0.002678,0.000431,0.015044
80057000,0.0324,0.013523,0.002678,0.000431,0.015279
80058000,0.0324,0.013523,0.002678,0.000431,0.014926
80059000,0.0324,0.013523,0.002678,0.000431,0.014573
80060000,0.0324,0.013523,0.002678,0.000431,0.008227
80061000,0.0324,0.013523,0.002678,0.000431,0.008932
80062000,0.0324,0.013523,0.002678,0.000431,0.008109
80063000,0.0324,0.013523,0.002678,0.000431,0.007992
80064000,0.0324,0.013523,0.002678,0.000431,0.007052
80065000,0.0324,0.013523,0.002678,0.000431,0.007639
80066000,0.0324,0.013523,0.002678,0.000431,0.008932
80067000,0.0324,0.013523,0.002678,0.000431,0.006699
80068000,0.0324,0.013523,0.002678,0.000431,0.006817
80069000,0.0324,0.013523,0.002678,0.000431,0.006934
80070000,0.0324,0.013523,0.002678,0.000431,0.006582
80071000,0.0324,0.013523,0.002678,0.000431,0.006582
80072000,0.0324,0.013523,0.002678,0.000431,0.007052
80073000,0.0324,0.013523,0.002678,0.000431,0.006464
80074000,0.0324,0.013523,0.002678,0.000431,0.006934
80075000,0.0324,0.013523,0.002678,0.000431,0.006699
80076000,0.0324,0.013523,0.002678,0.000431,0.006817
80077000,0.0324,0.013523,0.002678,0.000431,0.006817
80078000,0.0324,0.013523,0.002678,0.000431,0.006934
80079000,0.0324,0.013523,0.002678,0.000431,0.009402
80080000,0.0324,0.013523,0.002678,0.000431,0.005876
80081000,0.0324,0.013523,0.002678,0.000431,0.005994
80082000,0.0324,0.013523,0.002678,0.000431,0.005641
80083000,0.0324,0.013523,0.002678,0.000431,0.005994
80084000,0.0324,0.013523,0.002678,0.000431,0.005759
80085000,0.0324,0.013523,0.002678,0.000431,0.006111
80086000,0.0324,0.013523,0.002678,0.000431,0.006464
80087000,0.0324,0.013523,0.002678,0.000431,0.005524
80088000,0.0324,0.013523,0.002678,0.000431,0.005406
80089000,0.0324,0.013523,0.002678,0.000431,0.004584
80090000,0.0324,0.013523,0.002678,0.000431,0.005289
80091000,0.0324,0.013523,0.002678,0.000431,0.004231
80092000,0.0324,0.013523,0.002678,0.000431,0.005641
80093000,0.0324,0.013523,0.002678,0.000431,0.004936
80094000,0.0324,0.013523,0.002678,0.000431,0.003056
80095000,0.0324,0.013523,0.002678,0.000431,0.003761
80096000,0.0324,0.013523,0.002678,0.000431,0.003408
80097000,0.0324,0.013523,0.002678,0.000431,0.003526
80098000,0.0324,0.013523,0.002678,0.000431,0.003291
80099000,0.0324,0.013523,0.002678,0.000431,0.003526
80100000,0.0324,0.013523,0.002678,0.000431,0.003526
80101000,0.0324,0.013523,0.002678,0.000431,0.003408
80102000,0.0324,0.013523,0.002678,0.000431,0.003526
80103000,0.0324,0.013523,0.002678,0.000431,0.003408
80104000,0.0324,0.013523,0.002678,0.000431,0.003526
80105000,0.0324,0.013523,0.002678,0.000431,0.003408
80106000,0.0324,0.013523,0.002678,0.000431,0.003526
80107000,0.0324,0.013523,0.002678,0.000431,0.003408
80108000,0.0324,0.013523,0.002678,0.000431,0.003408
80109000,0.0324,0.013523,0.002678,0.000431,0.003643
80110000,0.0324,0.013523,0.002678,0.000431,0.003408
80111000,0.0324,0.013523,0.002678,0.000431,0.003643
80112000,0.0324,0.013523,0.002678,0.000431,0.003173
80113000,0.0324,0.013523,0.002678,0.000431,0.003526
80114000,0.0324,0.013523,0.002678,0.000431,0.003643
80115000,0.0324,0.013523,0.002678,0.000431,0.003526
80116000,0.0324,0.013523,0.002678,0.000431,0.003526
80117000,0.0324,0.013523,0.002678,0.000431,0.003173
80118000,0.0324,0.013523,0.002678,0.000431,0.003643
80119000,0.0324,0.013523,0.002678,0.000431,0.003526
80120000,0.0324,0.013523,0.002678,0.000431,0.005054
80121000,0.0324,0.013523,0.002678,0.000431,0.002586
80122000,0.0324,0.013523,0.002678,0.000431,0.002586
80123000,0.0324,0.013523,0.002678,0.000431,0.002468
80124000,0.0324,0.013523,0.002678,0.000431,0.002586
80125000,0.0324,0.013523,0.002678,0.000431,0.002821
80126000,0.0324,0.013523,0.002678,0.000431,0.002468
80127000,0.0324,0.013523,0.002678,0.000431,0.002468
80128000,0.0324,0.013523,0.002678,0.000431,0.002703
80129000,0.0324,0.013523,0.002678,0.000431,0.002703
80130000,0.0324,0.013523,0.002678,0.000431,0.002468
80131000,0.0324,0.013523,0.002678,0.000431,0.002468
80132000,0.0324,0.013523,0.002678,0.000431,0.002703
80133000,0.0324,0.013523,0.002678,0.000431,0.002703
80134000,0.0324,0.013523,0.002678,0.000431,0.002586
80135000,0.0324,0.013523,0.002678,0.000431,0.002351
80136000,0.0324,0.013523,0.002678,0.000431,0.002821
80137000,0.0324,0.013523,0.002678,0.000431,0.002468
80138000,0.0324,0.013523,0.002678,0.000431,0.002703
80139000,0.0324,0.013523,0.002678,0.000431,0.002586
80140000,0.0324,0.013523,0.002678,0.000431,0.002586
80141000,0.0324,0.013523,0.002678,0.000431,0.002586
80142000,0.0324,0.013523,0.002678,0.000431,0.002468
80143000,0.0324,0.013523,0.002678,0.000431,0.002703
80144000,0.0324,0.013523,0.002678,0.000431,0.002703
80145000,0.0324,0.013523,0.002678,0.000431,0.002351
80146000,0.0324,0.013523,0.002678,0.000431,0.002586
80147000,0.0324,0.013523,0.002678,0.000431,0.002703
80148000,0.0324,0.013523,0.002678,0.000431,0.002821
80149000,0.0324,0.013523,0.002678,0.000431,0.002233
80150000,0.0324,0.013523,0.002678,0.000431,0.002703
80151000,0.0324,0.013523,0.002678,0.000431,0.002703
80152000,0.0324,0.013523,0.002678,0.000431,0.002586
80153000,0.0324,0.013523,0.002678,0.000431,0.002468
80154000,0.0324,0.013523,0.002678,0.000431,0.002586
80155000,0.0324,0.013523,0.002678,0.000431,0.002703
80156000,0.0324,0.013523,0.002678,0.000431,0.002586
80157000,0.0324,0.013523,0.002678,0.000431,0.002586
80158000,0.0324,0.013523,0.002678,0.000431,0.002468
80159000,0.0324,0.013523,0.002678,0.000431,0.002703
80160000,0.0324,0.013523,0.002678,0.000431,0.002468
80161000,0.0324,0.013523,0.002678,0.000431,0.002703
80162000,0.0324,0.013523,0.002678,0.000431,0.002703
80163000,0.0324,0.013523,0.002678,0.000431,0.002468
80164000,0.0324,0.013523,0.002678,0.000431,0.002586
80165000,0.0324,0.013523,0.002678,0.000431,0.002468
80166000,0.0324,0.013523,0.002678,0.000431,0.002821
80167000,0.0324,0.013523,0.002678,0.000431,0.002586
80168000,0.0324,0.013523,0.002678,0.000431,0.002468
80169000,0.0324,0.013523,0.002678,0.000431,0.002586
80170000,0.0324,0.013523,0.002678,0.000431,0.002703
80171000,0.0324,0.013523,0.002678,0.000431,0.002703
80172000,0.0324,0.013523,0.002678,0.000431,0.002233
80173000,0.0324,0.013523,0.002678,0.000431,0.002821
80174000,0.0324,0.013523,0.002678,0.000431,0.002703
80175000,0.0324,0.013523,0.002678,0.000431,0.002586
80176000,0.0324,0.013523,0.002678,0.000431,0.003408
80177000,0.0324,0.013523,0.002678,0.000431,0.001763
80178000,0.0324,0.013523,0.002678,0.000431,0.001645
80179000,0.0324,0.013523,0.002678,0.000431,0.001763
80180000,0.0324,0.013523,0.002678,0.000431,0.001763
80181000,0.0324,0.013523,0.002678,0.000431,0.002351
80182000,0.0324,0.013523,0.002678,0.000431,0.001998
80183000,0.0324,0.013523,0.002678,0.000431,0.000823
80184000,0.0324,0.013523,0.002678,0.000431,0.000823
80185000,0.0324,0.013523,0.002678,0.000431,0.000940
80186000,0.0324,0.013523,0.002678,0.000431,0.000940
80187000,0.0324,0.013523,0.002678,0.000431,0.000705
80188000,0.0324,0.013523,0.002678,0.000431,0.000940
80189000,0.0324,0.013523,0.002678,0.000431,0.000940
80190000,0.0324,0.013523,0.002678,0.000431,0.000940
80191000,0.0324,0.013523,0.002678,0.000431,0.000705
80192000,0.0324,0.013523,0.002678,0.000431,0.000940
80193000,0.0324,0.013523,0.002678,0.000431,0.000940
80194000,0.0324,0.013523,0.002678,0.000431,0.000823
80195000,0.0324,0.013523,0.002678,0.000431,0.000823
80196000,0.0324,0.013523,0.002678,0.000431,0.000940
80197000,0.0324,0.013523,0.002678,0.000431,0.000940
80198000,0.0324,0.013523,0.002678,0.000431,0.000823
80199000,0.0324,0.013523,0.002678,0.000431,0.000823
80200000,0.0324,0.013523,0.002678,0.000431,0.000940
80201000,0.0324,0.013523,0.002678,0.000431,0.000823
80202000,0.0324,0.013523,0.002678,0.000431,0.000940
80203000,0.0324,0.013523,0.002678,0.000431,0.000823
80204000,0.0324,0.013523,0.002678,0.000431,0.000940
80205000,0.0324,0.013523,0.002678,0.000431,0.000823
80206000,0.0324,0.013523,0.002678,0.000431,0.000823
80207000,0.0324,0.013523,0.002678,0.000431,0.000940
80208000,0.0324,0.013523,0.002678,0.000431,0.000940
80209000,0.0324,0.013523,0.002678,0.000431,0.000823
80210000,0.0324,0.013523,0.002678,0.000431,0.000823
80211000,0.0324,0.013523,0.002678,0.000431,0.000940
80212000,0.0324,0.013523,0.002678,0.000431,0.000940
80213000,0.0324,0.013523,0.002678,0.000431,0.000823
80214000,0.0324,0.013523,0.002678,0.000431,0.000823
80215000,0.0324,0.013523,0.002678,0.000431,0.000940
80216000,0.0324,0.013523,0.002678,0.000431,0.000940
80217000,0.0324,0.013523,0.002678,0.000431,0.149731
80218000,0.0324,0.013523,0.002678,0.000431,0.414874
80219000,0.0324,0.013523,0.002678,0.000431,0.540630
80220000,0.0324,0.013523,0.002678,0.000431,0.134922
80221000,0.0324,0.013523,0.002678,0.000431,0.131161
80222000,0.0324,0.013523,0.002678,0.000431,0.569071
80223000,0.0324,0.013523,0.002678,0.000431,0.219660
80224000,0.0324,0.013523,0.002678,0.000431,0.275486
80225000,0.0324,0.013523,0.002678,0.000431,0.341654
80226000,0.0324,0.013523,0.002678,0.000431,0.141034
80227000,0.0324,0.013523,0.002678,0.000431,0.136333
80228000,0.0324,0.013523,0.002678,0.000431,0.118586
80229000,0.0324,0.013523,0.002678,0.000431,0.287944
80230000,0.0324,0.013523,0.002678,0.000431,0.320382
80231000,0.0324,0.013523,0.002678,0.000431,0.047481
80232000,0.0324,0.013523,0.002678,0.000431,0.034318
80233000,0.0324,0.013523,0.002678,0.000431,0.029382
80234000,0.0324,0.013523,0.002678,0.000431,0.027972
80235000,0.0324,0.013523,0.002678,0.000431,0.028207
80236000,0.0324,0.013523,0.002678,0.000431,0.025269
80237000,0.0324,0.013523,0.002678,0.000431,0.024211
80238000,0.0324,0.013523,0.002678,0.000431,0.019862
80239000,0.0324,0.013523,0.002678,0.000431,0.017982
80240000,0.0324,0.013523,0.002678,0.000431,0.019627
80241000,0.0324,0.013523,0.002678,0.000431,0.018099
80242000,0.0324,0.013523,0.002678,0.000431,0.016101
80243000,0.0324,0.013523,0.002678,0.000431,0.017277
80244000,0.0324,0.013523,0.002678,0.000431,0.013633
80245000,0.0324,0.013523,0.002678,0.000431,0.010695
80246000,0.0324,0.013523,0.002678,0.000431,0.009050
80247000,0.0324,0.013523,0.002678,0.000431,0.011165
80248000,0.0324,0.013523,0.002678,0.000431,0.006934
80249000,0.0324,0.013523,0.002678,0.000431,0.006934
80250000,0.0324,0.013523,0.002678,0.000431,0.007522
80251000,0.0324,0.013523,0.002678,0.000431,0.005759
80252000,0.0324,0.013523,0.002678,0.000431,0.005524
80253000,0.0324,0.013523,0.002678,0.000431,0.006229
80254000,0.0324,0.013523,0.002678,0.000431,0.004936
80255000,0.0324,0.013523,0.002678,0.000431,0.005524
80256000,0.0324,0.013523,0.002678,0.000431,0.004466
80257000,0.0324,0.013523,0.002678,0.000431,0.005406
80258000,0.0324,0.013523,0.002678,0.000431,0.004936
80259000,0.0324,0.013523,0.002678,0.000431,0.005054
80260000,0.0324,0.013523,0.002678,0.000431,0.005171
80261000,0.0324,0.013523,0.002678,0.000431,0.007992
80262000,0.0324,0.013523,0.002678,0.000431,0.004466
80263000,0.0324,0.013523,0.002678,0.000431,0.004113
80264000,0.0324,0.013523,0.002678,0.000431,0.004231
80265000,0.0324,0.013523,0.002678,0.000431,0.004231
80266000,0.0324,0.013523,0.002678,0.000431,0.006582
80267000,0.0324,0.013523,0.002678,0.000431,0.003291
80268000,0.0324,0.013523,0.002678,0.000431,0.003408
80269000,0.0324,0.013523,0.002678,0.000431,0.003408
80270000,0.0324,0.013523,0.002678,0.000431,0.003291
80271000,0.0324,0.013523,0.002678,0.000431,0.003643
80272000,0.0324,0.013523,0.002678,0.000431,0.003056
80273000,0.0324,0.013523,0.002678,0.000431,0.003526
80274000,0.0324,0.013523,0.002678,0.000431,0.003056
80275000,0.0324,0.013523,0.002678,0.000431,0.003526
80276000,0.0324,0.013523,0.002678,0.000431,0.003526
80277000,0.0324,0.013523,0.002678,0.000431,0.003056
80278000,0.0324,0.013523,0.002678,0.000431,0.003526
80279000,0.0324,0.013523,0.002678,0.000431,0.003056
80280000,0.0324,0.013523,0.002678,0.000431,0.003643
80281000,0.0324,0.013523,0.002678,0.000431,0.003291
80282000,0.0324,0.013523,0.002678,0.000431,0.003408
80283000,0.0324,0.013523,0.002678,0.000431,0.003408
80284000,0.0324,0.013523,0.002678,0.000431,0.003173
80285000,0.0324,0.013523,0.002678,0.000431,0.003408
80286000,0.0324,0.013523,0.002678,0.000431,0.003291
80287000,0.0324,0.013523,0.002678,0.000431,0.003291
80288000,0.0324,0.013523,0.002678,0.000431,0.003408
80289000,0.0324,0.013523,0.002678,0.000431,0.003526
80290000,0.0324,0.013523,0.002678,0.000431,0.003173
80291000,0.0324,0.013523,0.002678,0.000431,0.003291
80292000,0.0324,0.013523,0.002678,0.000431,0.003408
80293000,0.0324,0.013523,0.002678,0.000431,0.003408
80294000,0.0324,0.013523,0.002678,0.000431,0.003291
80295000,0.0324,0.013523,0.002678,0.000431,0.003291
80296000,0.0324,0.013523,0.002678,0.000431,0.003291
80297000,0.0324,0.013523,0.002678,0.000431,0.003291
80298000,0.0324,0.013523,0.002678,0.000431,0.003526
80299000,0.0324,0.013523,0.002678,0.000431,0.003056
80300000,0.0324,0.013523,0.002678,0.000431,0.003526
80301000,0.0324,0.013523,0.002678,0.000431,0.003408
80302000,0.0324,0.013523,0.002678,0.000431,0.003173
80303000,0.0324,0.013523,0.002678,0.000431,0.003526
80304000,0.0324,0.013523,0.002678,0.000431,0.003173
80305000,0.0324,0.013523,0.002678,0.000431,0.003408
80306000,0.0324,0.013523,0.002678,0.000431,0.003526
80307000,0.0324,0.013523,0.002678,0.000431,0.003056
80308000,0.0324,0.013523,0.002678,0.000431,0.003643
80309000,0.0324,0.013523,0.002678,0.000431,0.002938
80310000,0.0324,0.013523,0.002678,0.000431,0.003643
80311000,0.0324,0.013523,0.002678,0.000431,0.003408
80312000,0.0324,0.013523,0.002678,0.000431,0.003173
80313000,0.0324,0.013523,0.002678,0.000431,0.005171
80314000,0.0324,0.013523,0.002678,0.000431,0.002468
80315000,0.0324,0.013523,0.002678,0.000431,0.002586
80316000,0.0324,0.013523,0.002678,0.000431,0.004701
80317000,0.0324,0.013523,0.002678,0.000431,0.001763
80318000,0.0324,0.013523,0.002678,0.000431,0.001645
80319000,0.0324,0.013523,0.002678,0.000431,0.001645
80320000,0.0324,0.013523,0.002678,0.000431,0.001763
80321000,0.0324,0.013523,0.002678,0.000431,0.001528
80322000,0.0324,0.013523,0.002678,0.000431,0.001763
80323000,0.0324,0.013523,0.002678,0.000431,0.001645
80324000,0.0324,0.013523,0.002678,0.000431,0.001763
80325000,0.0324,0.013523,0.002678,0.000431,0.001528
80326000,0.0324,0.013523,0.002678,0.000431,0.001763
80327000,0.0324,0.013523,0.002678,0.000431,0.001528
80328000,0.0324,0.013523,0.002678,0.000431,0.001763
80329000,0.0324,0.013523,0.002678,0.000431,0.001880
80330000,0.0324,0.013523,0.002678,0.000431,0.001410
80331000,0.0324,0.013523,0.002678,0.000431,0.001880
80332000,0.0324,0.013523,0.002678,0.000431,0.001410
80333000,0.0324,0.013523,0.002678,0.000431,0.001880
80334000,0.0324,0.013523,0.002678,0.000431,0.001763
80335000,0.0324,0.013523,0.002678,0.000431,0.001528
80336000,0.0324,0.013523,0.002678,0.000431,0.001763
80337000,0.0324,0.013523,0.002678,0.000431,0.001763
80338000,0.0324,0.013523,0.002678,0.000431,0.002351
80339000,0.0324,0.013523,0.002678,0.000431,0.001763
80340000,0.0324,0.013523,0.002678,0.000431,0.001763
80341000,0.0324,0.013523,0.002678,0.000431,0.329431
80342000,0.0324,0.013523,0.002678,0.000431,0.663917
80343000,0.0324,0.013523,0.002678,0.000431,0.199915
80344000,0.0324,0.013523,0.002678,0.000431,0.132102
80345000,0.0324,0.013523,0.002678,0.000431,0.157135
80346000,0.0324,0.013523,0.002678,0.000431,0.597748
80347000,0.0324,0.013523,0.002678,0.000431,0.249630
80348000,0.0324,0.013523,0.002678,0.000431,0.299932
80349000,0.0324,0.013523,0.002678,0.000431,0.226477
80350000,0.0324,0.013523,0.002678,0.000431,0.152552
80351000,0.0324,0.013523,0.002678,0.000431,0.140094
80352000,0.0324,0.013523,0.002678,0.000431,0.217075
80353000,0.0324,0.013523,0.002678,0.000431,0.374210
80354000,0.0324,0.013523,0.002678,0.000431,0.043250
80355000,0.0324,0.013523,0.002678,0.000431,0.033613
80356000,0.0324,0.013523,0.002678,0.000431,0.025269
80357000,0.0324,0.013523,0.002678,0.000431,0.020097
80358000,0.0324,0.013523,0.002678,0.000431,0.017394
80359000,0.0324,0.013523,0.002678,0.000431,0.019392
80360000,0.0324,0.013523,0.002678,0.000431,0.016336
80361000,0.0324,0.013523,0.002678,0.000431,0.016689
80362000,0.0324,0.013523,0.002678,0.000431,0.019157
80363000,0.0324,0.013523,0.002678,0.000431,0.016807
80364000,0.0324,0.013523,0.002678,0.000431,0.015631
80365000,0.0324,0.013523,0.002678,0.000431,0.018452
80366000,0.0324,0.013523,0.002678,0.000431,0.014103
80367000,0.0324,0.013523,0.002678,0.000431,0.013398
80368000,0.0324,0.013523,0.002678,0.000431,0.014926
80369000,0.0324,0.013523,0.002678,0.000431,0.012223
80370000,0.0324,0.013523,0.002678,0.000431,0.012458
80371000,0.0324,0.013523,0.002678,0.000431,0.013046
80372000,0.0324,0.013523,0.002678,0.000431,0.011870
80373000,0.0324,0.013523,0.002678,0.000431,0.013163
80374000,0.0324,0.013523,0.002678,0.000431,0.013046
80375000,0.0324,0.013523,0.002678,0.000431,0.012693
80376000,0.0324,0.013523,0.002678,0.000431,0.011753
80377000,0.0324,0.013523,0.002678,0.000431,0.011518
80378000,0.0324,0.013523,0.002678,0.000431,0.012458
80379000,0.0324,0.013523,0.002678,0.000431,0.011635
80380000,0.0324,0.013523,0.002678,0.000431,0.011048
80381000,0.0324,0.013523,0.002678,0.000431,0.008697
80382000,0.0324,0.013523,0.002678,0.000431,0.009402
80383000,0.0324,0.013523,0.002678,0.000431,0.009285
80384000,0.0324,0.013523,0.002678,0.000431,0.009050
80385000,0.0324,0.013523,0.002678,0.000431,0.008815
80386000,0.0324,0.013523,0.002678,0.000431,0.009402
80387000,0.0324,0.013523,0.002678,0.000431,0.009637
80388000,0.0324,0.013523,0.002678,0.000431,0.008697
80389000,0.0324,0.013523,0.002678,0.000431,0.009402
80390000,0.0324,0.013523,0.002678,0.000431,0.008815
80391000,0.0324,0.013523,0.002678,0.000431,0.009402
80392000,0.0324,0.013523,0.002678,0.000431,0.009050
80393000,0.0324,0.013523,0.002678,0.000431,0.009167
80394000,0.0324,0.013523,0.002678,0.000431,0.010695
80395000,0.0324,0.013523,0.002678,0.000431,0.010813
80396000,0.0324,0.013523,0.002678,0.000431,0.007522
80397000,0.0324,0.013523,0.002678,0.000431,0.007287
80398000,0.0324,0.013523,0.002678,0.000431,0.008227
80399000,0.0324,0.013523,0.002678,0.000431,0.007522
80400000,0.0324,0.013523,0.002678,0.000431,0.009402
80401000,0.0324,0.013523,0.002678,0.000431,0.006699
80402000,0.0324,0.013523,0.002678,0.000431,0.007874
80403000,0.0324,0.013523,0.002678,0.000431,0.005876
80404000,0.0324,0.013523,0.002678,0.000431,0.006582
80405000,0.0324,0.013523,0.002678,0.000431,0.005054
80406000,0.0324,0.013523,0.002678,0.000431,0.005171
80407000,0.0324,0.013523,0.002678,0.000431,0.004584
80408000,0.0324,0.013523,0.002678,0.000431,0.005289
80409000,0.0324,0.013523,0.002678,0.000431,0.004701
80410000,0.0324,0.013523,0.002678,0.000431,0.004936
80411000,0.0324,0.013523,0.002678,0.000431,0.005054
80412000,0.0324,0.013523,0.002678,0.000431,0.005054
80413000,0.0324,0.013523,0.002678,0.000431,0.005171
80414000,0.0324,0.013523,0.002678,0.000431,0.004701
80415000,0.0324,0.013523,0.002678,0.000431,0.005054
80416000,0.0324,0.013523,0.002678,0.000431,0.004819
80417000,0.0324,0.013523,0.002678,0.000431,0.004466
80418000,0.0324,0.013523,0.002678,0.000431,0.005054
80419000,0.0324,0.013523,0.002678,0.000431,0.008580
80420000,0.0324,0.013523,0.002678,0.000431,0.003526
80421000,0.0324,0.013523,0.002678,0.000431,0.003173
80422000,0.0324,0.013523,0.002678,0.000431,0.003291
80423000,0.0324,0.013523,0.002678,0.000431,0.003526
80424000,0.0324,0.013523,0.002678,0.000431,0.003056
80425000,0.0324,0.013523,0.002678,0.000431,0.003526
80426000,0.0324,0.013523,0.002678,0.000431,0.003056
80427000,0.0324,0.013523,0.002678,0.000431,0.003408
80428000,0.0324,0.013523,0.002678,0.000431,0.003291
80429000,0.0324,0.013523,0.002678,0.000431,0.003173
80430000,0.0324,0.013523,0.002678,0.000431,0.003526
80431000,0.0324,0.013523,0.002678,0.000431,0.003173
80432000,0.0324,0.013523,0.002678,0.000431,0.003291
80433000,0.0324,0.013523,0.002678,0.000431,0.003526
80434000,0.0324,0.013523,0.002678,0.000431,0.003056
80435000,0.0324,0.013523,0.002678,0.000431,0.003291
80436000,0.0324,0.013523,0.002678,0.000431,0.003526
80437000,0.0324,0.013523,0.002678,0.000431,0.003173
80438000,0.0324,0.013523,0.002678,0.000431,0.003173
80439000,0.0324,0.013523,0.002678,0.000431,0.003526
80440000,0.0324,0.013523,0.002678,0.000431,0.003056
80441000,0.0324,0.013523,0.002678,0.000431,0.003408
80442000,0.0324,0.013523,0.002678,0.000431,0.003526
80443000,0.0324,0.013523,0.002678,0.000431,0.002821
80444000,0.0324,0.013523,0.002678,0.000431,0.003761
80445000,0.0324,0.013523,0.002678,0.000431,0.003291
80446000,0.0324,0.013523,0.002678,0.000431,0.002938
80447000,0.0324,0.013523,0.002678,0.000431,0.003526
80448000,0.0324,0.013523,0.002678,0.000431,0.003056
80449000,0.0324,0.013523,0.002678,0.000431,0.003408
80450000,0.0324,0.013523,0.002678,0.000431,0.003408
80451000,0.0324,0.013523,0.002678,0.000431,0.003056
80452000,0.0324,0.013523,0.002678,0.000431,0.003526
80453000,0.0324,0.013523,0.002678,0.000431,0.003291
80454000,0.0324,0.013523,0.002678,0.000431,0.003291
80455000,0.0324,0.013523,0.002678,0.000431,0.003408
80456000,0.0324,0.013523,0.002678,0.000431,0.003408
80457000,0.0324,0.013523,0.002678,0.000431,0.003056
80458000,0.0324,0.013523,0.002678,0.000431,0.003408
80459000,0.0324,0.013523,0.002678,0.000431,0.003291
80460000,0.0324,0.013523,0.002678,0.000431,0.003056
80461000,0.0324,0.013523,0.002678,0.000431,0.003408
80462000,0.0324,0.013523,0.002678,0.000431,0.003526
80463000,0.0324,0.013523,0.002678,0.000431,0.003056
80464000,0.0324,0.013523,0.002678,0.000431,0.003291
80465000,0.0324,0.013523,0.002678,0.000431,0.003408
80466000,0.0324,0.013523,0.002678,0.000431,0.003291
80467000,0.0324,0.013523,0.002678,0.000431,0.003173
80468000,0.0324,0.013523,0.002678,0.000431,0.003291
80469000,0.0324,0.013523,0.002678,0.000431,0.003526
80470000,0.0324,0.013523,0.002678,0.000431,0.003173
80471000,0.0324,0.013523,0.002678,0.000431,0.003291
80472000,0.0324,0.013523,0.002678,0.000431,0.003173
80473000,0.0324,0.013523,0.002678,0.000431,0.003526
80474000,0.0324,0.013523,0.002678,0.000431,0.003408
80475000,0.0324,0.013523,0.002678,0.000431,0.002938
80476000,0.0324,0.013523,0.002678,0.000431,0.003408
80477000,0.0324,0.013523,0.002678,0.000431,0.003643
80478000,0.0324,0.013523,0.002678,0.000431,0.002821
80479000,0.0324,0.013523,0.002678,0.000431,0.003408
80480000,0.0324,0.013523,0.002678,0.000431,0.003408
80481000,0.0324,0.013523,0.002678,0.000431,0.003173
80482000,0.0324,0.013523,0.002678,0.000431,0.003291
80483000,0.0324,0.013523,0.002678,0.000431,0.003408
80484000,0.0324,0.013523,0.002678,0.000431,0.003291
80485000,0.0324,0.013523,0.002678,0.000431,0.003408
80486000,0.0324,0.013523,0.002678,0.000431,0.002938
80487000,0.0324,0.013523,0.002678,0.000431,0.003408
80488000,0.0324,0.013523,0.002678,0.000431,0.003526
80489000,0.0324,0.013523,0.002678,0.000431,0.002938
80490000,0.0324,0.013523,0.002678,0.000431,0.002586
80491000,0.0324,0.013523,0.002678,0.000431,0.002586
80492000,0.0324,0.013523,0.002678,0.000431,0.002703
80493000,0.0324,0.013523,0.002678,0.000431,0.002586
80494000,0.0324,0.013523,0.002678,0.000431,0.002586
80495000,0.0324,0.013523,0.002678,0.000431,0.002703
80496000,0.0324,0.013523,0.002678,0.000431,0.002703
80497000,0.0324,0.013523,0.002678,0.000431,0.002586
80498000,0.0324,0.013523,0.002678,0.000431,0.002586
80499000,0.0324,0.013523,0.002678,0.000431,0.002586
80500000,0.0324,0.013523,0.002678,0.000431,0.002703
80501000,0.0324,0.013523,0.002678,0.000431,0.002586
80502000,0.0324,0.013523,0.002678,0.000431,0.002821
80503000,0.0324,0.013523,0.002678,0.000431,0.002468
80504000,0.0324,0.013523,0.002678,0.000431,0.002703
80505000,0.0324,0.013523,0.002678,0.000431,0.002586
80506000,0.0324,0.013523,0.002678,0.000431,0.002586
80507000,0.0324,0.013523,0.002678,0.000431,0.002586
80508000,0.0324,0.013523,0.002678,0.000431,0.002703
80509000,0.0324,0.013523,0.002678,0.000431,0.002586
80510000,0.0324,0.013523,0.002678,0.000431,0.002703
80511000,0.0324,0.013523,0.002678,0.000431,0.002586
80512000,0.0324,0.013523,0.002678,0.000431,0.002703
80513000,0.0324,0.013523,0.002678,0.000431,0.002468
80514000,0.0324,0.013523,0.002678,0.000431,0.002821
80515000,0.0324,0.013523,0.002678,0.000431,0.002586
80516000,0.0324,0.013523,0.002678,0.000431,0.002586
80517000,0.0324,0.013523,0.002678,0.000431,0.002586
80518000,0.0324,0.013523,0.002678,0.000431,0.002703
80519000,0.0324,0.013523,0.002678,0.000431,0.002703
80520000,0.0324,0.013523,0.002678,0.000431,0.002586
80521000,0.0324,0.013523,0.002678,0.000431,0.002703
80522000,0.0324,0.013523,0.002678,0.000431,0.002468
80523000,0.0324,0.013523,0.002678,0.000431,0.002703
80524000,0.0324,0.013523,0.002678,0.000431,0.002703
80525000,0.0324,0.013523,0.002678,0.000431,0.002586
80526000,0.0324,0.013523,0.002678,0.000431,0.002586
80527000,0.0324,0.013523,0.002678,0.000431,0.002586
80528000,0.0324,0.013523,0.002678,0.000431,0.002586
80529000,0.0324,0.013523,0.002678,0.000431,0.002821
80530000,0.0324,0.013523,0.002678,0.000431,0.002586
80531000,0.0324,0.013523,0.002678,0.000431,0.002586
80532000,0.0324,0.013523,0.002678,0.000431,0.002586
80533000,0.0324,0.013523,0.002678,0.000431,0.002703
80534000,0.0324,0.013523,0.002678,0.000431,0.002586
80535000,0.0324,0.013523,0.002678,0.000431,0.002703
80536000,0.0324,0.013523,0.002678,0.000431,0.002586
80537000,0.0324,0.013523,0.002678,0.000431,0.004231
80538000,0.0324,0.013523,0.002678,0.000431,0.001880
80539000,0.0324,0.013523,0.002678,0.000431,0.001763
80540000,0.0324,0.013523,0.002678,0.000431,0.001528
80541000,0.0324,0.013523,0.002678,0.000431,0.001880
80542000,0.0324,0.013523,0.002678,0.000431,0.001763
80543000,0.0324,0.013523,0.002678,0.000431,0.001880
80544000,0.0324,0.013523,0.002678,0.000431,0.003408
80545000,0.0324,0.013523,0.002678,0.000431,0.000823
80546000,0.0324,0.013523,0.002678,0.000431,0.000940
80547000,0.0324,0.013523,0.002678,0.000431,0.000940
80548000,0.0324,0.013523,0.002678,0.000431,0.236819
80549000,0.0324,0.013523,0.002678,0.000431,0.613027
80550000,0.0324,0.013523,0.002678,0.000431,0.316738
80551000,0.0324,0.013523,0.002678,0.000431,0.132102
80552000,0.0324,0.013523,0.002678,0.000431,0.133042
80553000,0.0324,0.013523,0.002678,0.000431,0.602097
80554000,0.0324,0.013523,0.002678,0.000431,0.226359
80555000,0.0324,0.013523,0.002678,0.000431,0.274781
80556000,0.0324,0.013523,0.002678,0.000431,0.298287
80557000,0.0324,0.013523,0.002678,0.000431,0.137390
80558000,0.0324,0.013523,0.002678,0.000431,0.161366
80559000,0.0324,0.013523,0.002678,0.000431,0.108831
80560000,0.0324,0.013523,0.002678,0.000431,0.458125
80561000,0.0324,0.013523,0.002678,0.000431,0.118703
80562000,0.0324,0.013523,0.002678,0.000431,0.058059
80563000,0.0324,0.013523,0.002678,0.000431,0.054768
80564000,0.0324,0.013523,0.002678,0.000431,0.045601
80565000,0.0324,0.013523,0.002678,0.000431,0.035611
80566000,0.0324,0.013523,0.002678,0.000431,0.034906
80567000,0.0324,0.013523,0.002678,0.000431,0.032320
80568000,0.0324,0.013523,0.002678,0.000431,0.022918
80569000,0.0324,0.013523,0.002678,0.000431,0.025856
80570000,0.0324,0.013523,0.002678,0.000431,0.023036
80571000,0.0324,0.013523,0.002678,0.000431,0.019040
80572000,0.0324,0.013523,0.002678,0.000431,0.020802
80573000,0.0324,0.013523,0.002678,0.000431,0.019745
80574000,0.0324,0.013523,0.002678,0.000431,0.014926
80575000,0.0324,0.013523,0.002678,0.000431,0.014103
80576000,0.0324,0.013523,0.002678,0.000431,0.014456
80577000,0.0324,0.013523,0.002678,0.000431,0.013163
80578000,0.0324,0.013523,0.002678,0.000431,0.013516
80579000,0.0324,0.013523,0.002678,0.000431,0.013046
80580000,0.0324,0.013523,0.002678,0.000431,0.013868
80581000,0.0324,0.013523,0.002678,0.000431,0.012693
80582000,0.0324,0.013523,0.002678,0.000431,0.015279
80583000,0.0324,0.013523,0.002678,0.000431,0.014926
80584000,0.0324,0.013523,0.002678,0.000431,0.013046
80585000,0.0324,0.013523,0.002678,0.000431,0.010225
80586000,0.0324,0.013523,0.002678,0.000431,0.011518
80587000,0.0324,0.013523,0.002678,0.000431,0.010342
80588000,0.0324,0.013523,0.002678,0.000431,0.011400
80589000,0.0324,0.013523,0.002678,0.000431,0.013868
80590000,0.0324,0.013523,0.002678,0.000431,0.009402
80591000,0.0324,0.013523,0.002678,0.000431,0.008462
80592000,0.0324,0.013523,0.002678,0.000431,0.009755
80593000,0.0324,0.013523,0.002678,0.000431,0.008932
80594000,0.0324,0.013523,0.002678,0.000431,0.009637
80595000,0.0324,0.013523,0.002678,0.000431,0.008109
80596000,0.0324,0.013523,0.002678,0.000431,0.009637
80597000,0.0324,0.013523,0.002678,0.000431,0.011518
80598000,0.0324,0.013523,0.002678,0.000431,0.007992
80599000,0.0324,0.013523,0.002678,0.000431,0.008462
80600000,0.0324,0.013523,0.002678,0.000431,0.007874
80601000,0.0324,0.013523,0.002678,0.000431,0.007639
80602000,0.0324,0.013523,0.002678,0.000431,0.007874
80603000,0.0324,0.013523,0.002678,0.000431,0.006934
80604000,0.0324,0.013523,0.002678,0.000431,0.007639
80605000,0.0324,0.013523,0.002678,0.000431,0.006934
80606000,0.0324,0.013523,0.002678,0.000431,0.007522
80607000,0.0324,0.013523,0.002678,0.000431,0.005876
80608000,0.0324,0.013523,0.002678,0.000431,0.006347
80609000,0.0324,0.013523,0.002678,0.000431,0.007404
80610000,0.0324,0.013523,0.002678,0.000431,0.006229
80611000,0.0324,0.013523,0.002678,0.000431,0.004113
80612000,0.0324,0.013523,0.002678,0.000431,0.003761
80613000,0.0324,0.013523,0.002678,0.000431,0.003878
80614000,0.0324,0.013523,0.002678,0.000431,0.003878
80615000,0.0324,0.013523,0.002678,0.000431,0.004113
80616000,0.0324,0.013523,0.002678,0.000431,0.003878
80617000,0.0324,0.013523,0.002678,0.000431,0.003996
80618000,0.0324,0.013523,0.002678,0.000431,0.003526
80619000,0.0324,0.013523,0.002678,0.000431,0.004113
80620000,0.0324,0.013523,0.002678,0.000431,0.003526
80621000,0.0324,0.013523,0.002678,0.000431,0.004936
80622000,0.0324,0.013523,0.002678,0.000431,0.002586
80623000,0.0324,0.013523,0.002678,0.000431,0.002351
80624000,0.0324,0.013523,0.002678,0.000431,0.002586
80625000,0.0324,0.013523,0.002678,0.000431,0.002586
80626000,0.0324,0.013523,0.002678,0.000431,0.002351
80627000,0.0324,0.013523,0.002678,0.000431,0.002586
80628000,0.0324,0.013523,0.002678,0.000431,0.002468
80629000,0.0324,0.013523,0.002678,0.000431,0.002586
80630000,0.0324,0.013523,0.002678,0.000431,0.002468
80631000,0.0324,0.013523,0.002678,0.000431,0.002468
80632000,0.0324,0.013523,0.002678,0.000431,0.002351
80633000,0.0324,0.013523,0.002678,0.000431,0.002703
80634000,0.0324,0.013523,0.002678,0.000431,0.002586
80635000,0.0324,0.013523,0.002678,0.000431,0.002351
80636000,0.0324,0.013523,0.002678,0.000431,0.002821
80637000,0.0324,0.013523,0.002678,0.000431,0.003996
80638000,0.0324,0.013523,0.002678,0.000431,0.001998
80639000,0.0324,0.013523,0.002678,0.000431,0.001763
80640000,0.0324,0.013523,0.002678,0.000431,0.001528
80641000,0.0324,0.013523,0.002678,0.000431,0.001880
80642000,0.0324,0.013523,0.002678,0.000431,0.001410
80643000,0.0324,0.013523,0.002678,0.000431,0.001880
80644000,0.0324,0.013523,0.002678,0.000431,0.001645
80645000,0.0324,0.013523,0.002678,0.000431,0.001645
80646000,0.0324,0.013523,0.002678,0.000431,0.001645
80647000,0.0324,0.013523,0.002678,0.000431,0.001645
80648000,0.0324,0.013523,0.002678,0.000431,0.001880
80649000,0.0324,0.013523,0.002678,0.000431,0.001410
80650000,0.0324,0.013523,0.002678,0.000431,0.001880
80651000,0.0324,0.013523,0.002678,0.000431,0.001645
80652000,0.0324,0.013523,0.002678,0.000431,0.001645
80653000,0.0324,0.013523,0.002678,0.000431,0.001645
80654000,0.0324,0.013523,0.002678,0.000431,0.001645
80655000,0.0324,0.013523,0.002678,0.000431,0.001645
80656000,0.0324,0.013523,0.002678,0.000431,0.001645
80657000,0.0324,0.013523,0.002678,0.000431,0.001645
80658000,0.0324,0.013523,0.002678,0.000431,0.003173
80659000,0.0324,0.013523,0.002678,0.000431,0.000940
80660000,0.0324,0.013523,0.002678,0.000431,0.000823
80661000,0.0324,0.013523,0.002678,0.000431,0.000823
80662000,0.0324,0.013523,0.002678,0.000431,0.000705
80663000,0.0324,0.013523,0.002678,0.000431,0.000940
80664000,0.0324,0.013523,0.002678,0.000431,0.000940
80665000,0.0324,0.013523,0.002678,0.000431,0.000705
80666000,0.0324,0.013523,0.002678,0.000431,0.000940
80667000,0.0324,0.013523,0.002678,0.000431,0.000823
80668000,0.0324,0.013523,0.002678,0.000431,0.000940
80669000,0.0324,0.013523,0.002678,0.000431,0.000823
80670000,0.0324,0.013523,0.002678,0.000431,0.000940
80671000,0.0324,0.013523,0.002678,0.000431,0.000823
80672000,0.0324,0.013523,0.002678,0.000431,0.000823
80673000,0.0324,0.013523,0.002678,0.000431,0.000940
80674000,0.0324,0.013523,0.002678,0.000431,0.000940
80675000,0.0324,0.013523,0.002678,0.000431,0.000823
80676000,0.0324,0.013523,0.002678,0.000431,0.000823
80677000,0.0324,0.013523,0.002678,0.000431,0.000940
80678000,0.0324,0.013523,0.002678,0.000431,0.000940
80679000,0.0324,0.013523,0.002678,0.000431,0.000705
80680000,0.0324,0.013523,0.002678,0.000431,0.000940
80681000,0.0324,0.013523,0.002678,0.000431,0.000705
80682000,0.0324,0.013523,0.002678,0.000431,0.000940
80683000,0.0324,0.013523,0.002678,0.000431,0.000940
80684000,0.0324,0.013523,0.002678,0.000431,0.000705
80685000,0.0324,0.013523,0.002678,0.000431,0.000940
80686000,0.0324,0.013523,0.002678,0.000431,0.000705
80687000,0.0324,0.013523,0.002678,0.000431,0.000940
80688000,0.0324,0.013523,0.002678,0.000431,0.000823
80689000,0.0324,0.013523,0.002678,0.000431,0.000823
80690000,0.0324,0.013523,0.002678,0.000431,0.000823
80691000,0.0324,0.013523,0.002678,0.000431,0.000823
80692000,0.0324,0.013523,0.002678,0.000431,0.000940
80693000,0.0324,0.013523,0.002678,0.000431,0.000705
80694000,0.0324,0.013523,0.002678,0.000431,0.000940
80695000,0.0324,0.013523,0.002678,0.000431,0.000823
80696000,0.0324,0.013523,0.002678,0.000431,0.000823
80697000,0.0324,0.013523,0.002678,0.000431,0.000823
80698000,0.0324,0.013523,0.002678,0.000431,0.000823
80699000,0.0324,0.013523,0.002678,0.000431,0.000940
80700000,0.0324,0.013523,0.002678,0.000431,0.000705
80701000,0.0324,0.013523,0.002678,0.000431,0.000940
80702000,0.0324,0.013523,0.002678,0.000431,0.000823
80703000,0.0324,0.013523,0.002678,0.000431,0.001763
80704000,0.0324,0.013523,0.002678,0.000431,0.385257
80705000,0.0324,0.013523,0.002678,0.000431,0.702113
80706000,0.0324,0.013523,0.002678,0.000431,0.144442
80707000,0.0324,0.013523,0.002678,0.000431,0.138448
80708000,0.0324,0.013523,0.002678,0.000431,0.184519
80709000,0.0324,0.013523,0.002678,0.000431,0.593165
80710000,0.0324,0.013523,0.002678,0.000431,0.239757
80711000,0.0324,0.013523,0.002678,0.000431,0.333898
80712000,0.0324,0.013523,0.002678,0.000431,0.217310
80713000,0.0324,0.013523,0.002678,0.000431,0.153374
80714000,0.0324,0.013523,0.002678,0.000431,0.110006
80715000,0.0324,0.013523,0.002678,0.000431,0.309922
80716000,0.0324,0.013523,0.002678,0.000431,0.290530
80717000,0.0324,0.013523,0.002678,0.000431,0.069342
80718000,0.0324,0.013523,0.002678,0.000431,0.051477
80719000,0.0324,0.013523,0.002678,0.000431,0.055473
80720000,0.0324,0.013523,0.002678,0.000431,0.039019
80721000,0.0324,0.013523,0.002678,0.000431,0.038902
80722000,0.0324,0.013523,0.002678,0.000431,0.034671
80723000,0.0324,0.013523,0.002678,0.000431,0.028559
80724000,0.0324,0.013523,0.002678,0.000431,0.027972
80725000,0.0324,0.013523,0.002678,0.000431,0.030087
80726000,0.0324,0.013523,0.002678,0.000431,0.024563
80727000,0.0324,0.013523,0.002678,0.000431,0.029265
80728000,0.0324,0.013523,0.002678,0.000431,0.022800
80729000,0.0324,0.013523,0.002678,0.000431,0.019862
80730000,0.0324,0.013523,0.002678,0.000431,0.014221
80731000,0.0324,0.013523,0.002678,0.000431,0.014221
80732000,0.0324,0.013523,0.002678,0.000431,0.013398
80733000,0.0324,0.013523,0.002678,0.000431,0.016336
80734000,0.0324,0.013523,0.002678,0.000431,0.012340
80735000,0.0324,0.013523,0.002678,0.000431,0.011635
80736000,0.0324,0.013523,0.002678,0.000431,0.011870
80737000,0.0324,0.013523,0.002678,0.000431,0.011988
80738000,0.0324,0.013523,0.002678,0.000431,0.011753
80739000,0.0324,0.013523,0.002678,0.000431,0.011753
80740000,0.0324,0.013523,0.002678,0.000431,0.011518
80741000,0.0324,0.013523,0.002678,0.000431,0.011870
80742000,0.0324,0.013523,0.002678,0.000431,0.011048
80743000,0.0324,0.013523,0.002678,0.000431,0.013163
80744000,0.0324,0.013523,0.002678,0.000431,0.010342
80745000,0.0324,0.013523,0.002678,0.000431,0.012223
80746000,0.0324,0.013523,0.002678,0.000431,0.009872
80747000,0.0324,0.013523,0.002678,0.000431,0.009167
80748000,0.0324,0.013523,0.002678,0.000431,0.010107
80749000,0.0324,0.013523,0.002678,0.000431,0.009402
80750000,0.0324,0.013523,0.002678,0.000431,0.009402
80751000,0.0324,0.013523,0.002678,0.000431,0.009520
80752000,0.0324,0.013523,0.002678,0.000431,0.008815
80753000,0.0324,0.013523,0.002678,0.000431,0.008697
80754000,0.0324,0.013523,0.002678,0.000431,0.009167
80755000,0.0324,0.013523,0.002678,0.000431,0.009050
80756000,0.0324,0.013523,0.002678,0.000431,0.009402
80757000,0.0324,0.013523,0.002678,0.000431,0.008697
80758000,0.0324,0.013523,0.002678,0.000431,0.007757
80759000,0.0324,0.013523,0.002678,0.000431,0.007874
80760000,0.0324,0.013523,0.002678,0.000431,0.008580
80761000,0.0324,0.013523,0.002678,0.000431,0.007404
80762000,0.0324,0.013523,0.002678,0.000431,0.008580
80763000,0.0324,0.013523,0.002678,0.000431,0.007052
80764000,0.0324,0.013523,0.002678,0.000431,0.006817
80765000,0.0324,0.013523,0.002678,0.000431,0.008697
80766000,0.0324,0.013523,0.002678,0.000431,0.005759
80767000,0.0324,0.013523,0.002678,0.000431,0.006347
80768000,0.0324,0.013523,0.002678,0.000431,0.005641
80769000,0.0324,0.013523,0.002678,0.000431,0.005641
80770000,0.0324,0.013523,0.002678,0.000431,0.005876
80771000,0.0324,0.013523,0.002678,0.000431,0.006347
80772000,0.0324,0.013523,0.002678,0.000431,0.005406
80773000,0.0324,0.013523,0.002678,0.000431,0.006111
80774000,0.0324,0.013523,0.002678,0.000431,0.005876
80775000,0.0324,0.013523,0.002678,0.000431,0.005759
80776000,0.0324,0.013523,0.002678,0.000431,0.006347
80777000,0.0324,0.013523,0.002678,0.000431,0.005524
80778000,0.0324,0.013523,0.002678,0.000431,0.005994
80779000,0.0324,0.013523,0.002678,0.000431,0.005876
80780000,0.0324,0.013523,0.002678,0.000431,0.005876
80781000,0.0324,0.013523,0.002678,0.000431,0.005994
80782000,0.0324,0.013523,0.002678,0.000431,0.006111
80783000,0.0324,0.013523,0.002678,0.000431,0.005641
80784000,0.0324,0.013523,0.002678,0.000431,0.005876
80785000,0.0324,0.013523,0.002678,0.000431,0.006111
80786000,0.0324,0.013523,0.002678,0.000431,0.005994
80787000,0.0324,0.013523,0.002678,0.000431,0.008462
80788000,0.0324,0.013523,0.002678,0.000431,0.005054
80789000,0.0324,0.013523,0.002678,0.000431,0.005171
80790000,0.0324,0.013523,0.002678,0.000431,0.004936
80791000,0.0324,0.013523,0.002678,0.000431,0.004936
80792000,0.0324,0.013523,0.002678,0.000431,0.005171
80793000,0.0324,0.013523,0.002678,0.000431,0.005289
80794000,0.0324,0.013523,0.002678,0.000431,0.004819
80795000,0.0324,0.013523,0.002678,0.000431,0.005171
80796000,0.0324,0.013523,0.002678,0.000431,0.005171
80797000,0.0324,0.013523,0.002678,0.000431,0.004936
80798000,0.0324,0.013523,0.002678,0.000431,0.005876
80799000,0.0324,0.013523,0.002678,0.000431,0.005171
80800000,0.0324,0.013523,0.002678,0.000431,0.004113
80801000,0.0324,0.013523,0.002678,0.000431,0.004231
80802000,0.0324,0.013523,0.002678,0.000431,0.004349
80803000,0.0324,0.013523,0.002678,0.000431,0.004349
80804000,0.0324,0.013523,0.002678,0.000431,0.006111
80805000,0.0324,0.013523,0.002678,0.000431,0.003526
80806000,0.0324,0.013523,0.002678,0.000431,0.003291
80807000,0.0324,0.013523,0.002678,0.000431,0.003408
80808000,0.0324,0.013523,0.002678,0.000431,0.003408
80809000,0.0324,0.013523,0.002678,0.000431,0.003526
80810000,0.0324,0.013523,0.002678,0.000431,0.003408
80811000,0.0324,0.013523,0.002678,0.000431,0.003173
80812000,0.0324,0.013523,0.002678,0.000431,0.003526
80813000,0.0324,0.013523,0.002678,0.000431,0.003291
80814000,0.0324,0.013523,0.002678,0.000431,0.004231
80815000,0.0324,0.013523,0.002678,0.000431,0.003761
80816000,0.0324,0.013523,0.002678,0.000431,0.002586
80817000,0.0324,0.013523,0.002678,0.000431,0.004231
80818000,0.0324,0.013523,0.002678,0.000431,0.001763
80819000,0.0324,0.013523,0.002678,0.000431,0.001763
80820000,0.0324,0.013523,0.002678,0.000431,0.001763
80821000,0.0324,0.013523,0.002678,0.000431,0.001645
80822000,0.0324,0.013523,0.002678,0.000431,0.001645
80823000,0.0324,0.013523,0.002678,0.000431,0.001645
80824000,0.0324,0.013523,0.002678,0.000431,0.001880
80825000,0.0324,0.013523,0.002678,0.000431,0.001763
80826000,0.0324,0.013523,0.002678,0.000431,0.001528
80827000,0.0324,0.013523,0.002678,0.000431,0.001880
80828000,0.0324,0.013523,0.002678,0.000431,0.001645
80829000,0.0324,0.013523,0.002678,0.000431,0.001645
80830000,0.0324,0.013523,0.002678,0.000431,0.001645
80831000,0.0324,0.013523,0.002678,0.000431,0.003408
80832000,0.0324,0.013523,0.002678,0.000431,0.000940
80833000,0.0324,0.013523,0.002678,0.000431,0.000823
80834000,0.0324,0.013523,0.002678,0.000431,0.001998
80835000,0.0324,0.013523,0.002678,0.000431,0.365160
80836000,0.0324,0.013523,0.002678,0.000431,0.682604
80837000,0.0324,0.013523,0.002678,0.000431,0.163599
80838000,0.0324,0.013523,0.002678,0.000431,0.133042
80839000,0.0324,0.013523,0.002678,0.000431,0.176997
80840000,0.0324,0.013523,0.002678,0.000431,0.647228
80841000,0.0324,0.013523,0.002678,0.000431,0.254566
80842000,0.0324,0.013523,0.002678,0.000431,0.275839
80843000,0.0324,0.013523,0.002678,0.000431,0.206497
80844000,0.0324,0.013523,0.002678,0.000431,0.138918
80845000,0.0324,0.013523,0.002678,0.000431,0.144677
80846000,0.0324,0.013523,0.002678,0.000431,0.226947
80847000,0.0324,0.013523,0.002678,0.000431,0.375032
80848000,0.0324,0.013523,0.002678,0.000431,0.055591
80849000,0.0324,0.013523,0.002678,0.000431,0.053828
80850000,0.0324,0.013523,0.002678,0.000431,0.045013
80851000,0.0324,0.013523,0.002678,0.000431,0.034083
80852000,0.0324,0.013523,0.002678,0.000431,0.020920
80853000,0.0324,0.013523,0.002678,0.000431,0.019275
80854000,0.0324,0.013523,0.002678,0.000431,0.023388
80855000,0.0324,0.013523,0.002678,0.000431,0.017747
80856000,0.0324,0.013523,0.002678,0.000431,0.010107
80857000,0.0324,0.013523,0.002678,0.000431,0.009755
80858000,0.0324,0.013523,0.002678,0.000431,0.009520
80859000,0.0324,0.013523,0.002678,0.000431,0.012223
80860000,0.0324,0.013523,0.002678,0.000431,0.008462
80861000,0.0324,0.013523,0.002678,0.000431,0.009402
80862000,0.0324,0.013523,0.002678,0.000431,0.007052
80863000,0.0324,0.013523,0.002678,0.000431,0.009872
80864000,0.0324,0.013523,0.002678,0.000431,0.009167
80865000,0.0324,0.013523,0.002678,0.000431,0.005406
80866000,0.0324,0.013523,0.002678,0.000431,0.004349
80867000,0.0324,0.013523,0.002678,0.000431,0.004466
80868000,0.0324,0.013523,0.002678,0.000431,0.003996
80869000,0.0324,0.013523,0.002678,0.000431,0.005876
80870000,0.0324,0.013523,0.002678,0.000431,0.003291
80871000,0.0324,0.013523,0.002678,0.000431,0.003526
80872000,0.0324,0.013523,0.002678,0.000431,0.003408
80873000,0.0324,0.013523,0.002678,0.000431,0.003291
80874000,0.0324,0.013523,0.002678,0.000431,0.003408
80875000,0.0324,0.013523,0.002678,0.000431,0.004819
80876000,0.0324,0.013523,0.002678,0.000431,0.002703
80877000,0.0324,0.013523,0.002678,0.000431,0.002351
80878000,0.0324,0.013523,0.002678,0.000431,0.002586
80879000,0.0324,0.013523,0.002678,0.000431,0.002821
80880000,0.0324,0.013523,0.002678,0.000431,0.002468
80881000,0.0324,0.013523,0.002678,0.000431,0.002703
80882000,0.0324,0.013523,0.002678,0.000431,0.002468
80883000,0.0324,0.013523,0.002678,0.000431,0.002468
80884000,0.0324,0.013523,0.002678,0.000431,0.004113
80885000,0.0324,0.013523,0.002678,0.000431,0.001880
80886000,0.0324,0.013523,0.002678,0.000431,0.001528
80887000,0.0324,0.013523,0.002678,0.000431,0.003996
80888000,0.0324,0.013523,0.002678,0.000431,0.000705
80889000,0.0324,0.013523,0.002678,0.000431,0.000940
80890000,0.0324,0.013523,0.002678,0.000431,0.000940
80891000,0.0324,0.013523,0.002678,0.000431,0.000705
80892000,0.0324,0.013523,0.002678,0.000431,0.000940
80893000,0.0324,0.013523,0.002678,0.000431,0.000705
80894000,0.0324,0.013523,0.002678,0.000431,0.000940
80895000,0.0324,0.013523,0.002678,0.000431,0.000823
80896000,0.0324,0.013523,0.002678,0.000431,0.000823
80897000,0.0324,0.013523,0.002678,0.000431,0.000823
80898000,0.0324,0.013523,0.002678,0.000431,0.000823
80899000,0.0324,0.013523,0.002678,0.000431,0.000940
80900000,0.0324,0.013523,0.002678,0.000431,0.072515
80901000,0.0324,0.013523,0.002678,0.000431,0.469878
80902000,0.0324,0.013523,0.002678,0.000431,0.599276
80903000,0.0324,0.013523,0.002678,0.000431,0.131161
80904000,0.0324,0.013523,0.002678,0.000431,0.134452
80905000,0.0324,0.013523,0.002678,0.000431,0.560492
80906000,0.0324,0.013523,0.002678,0.000431,0.236349
80907000,0.0324,0.013523,0.002678,0.000431,0.283596
80908000,0.0324,0.013523,0.002678,0.000431,0.299932
80909000,0.0324,0.013523,0.002678,0.000431,0.148203
80910000,0.0324,0.013523,0.002678,0.000431,0.143149
80911000,0.0324,0.013523,0.002678,0.000431,0.118351
80912000,0.0324,0.013523,0.002678,0.000431,0.311450
80913000,0.0324,0.013523,0.002678,0.000431,0.294761
80914000,0.0324,0.013523,0.002678,0.000431,0.066638
80915000,0.0324,0.013523,0.002678,0.000431,0.055473
80916000,0.0324,0.013523,0.002678,0.000431,0.034788
80917000,0.0324,0.013523,0.002678,0.000431,0.032203
80918000,0.0324,0.013523,0.002678,0.000431,0.031733
80919000,0.0324,0.013523,0.002678,0.000431,0.025739
80920000,0.0324,0.013523,0.002678,0.000431,0.020802
80921000,0.0324,0.013523,0.002678,0.000431,0.019040
80922000,0.0324,0.013523,0.002678,0.000431,0.020215
80923000,0.0324,0.013523,0.002678,0.000431,0.015396
80924000,0.0324,0.013523,0.002678,0.000431,0.014103
80925000,0.0324,0.013523,0.002678,0.000431,0.013751
80926000,0.0324,0.013523,0.002678,0.000431,0.014809
80927000,0.0324,0.013523,0.002678,0.000431,0.014103
80928000,0.0324,0.013523,0.002678,0.000431,0.014691
80929000,0.0324,0.013523,0.002678,0.000431,0.013986
80930000,0.0324,0.013523,0.002678,0.000431,0.014926
80931000,0.0324,0.013523,0.002678,0.000431,0.018452
80932000,0.0324,0.013523,0.002678,0.000431,0.013398
80933000,0.0324,0.013523,0.002678,0.000431,0.011635
80934000,0.0324,0.013523,0.002678,0.000431,0.011988
80935000,0.0324,0.013523,0.002678,0.000431,0.009755
80936000,0.0324,0.013523,0.002678,0.000431,0.011753
80937000,0.0324,0.013523,0.002678,0.000431,0.008697
80938000,0.0324,0.013523,0.002678,0.000431,0.008932
80939000,0.0324,0.013523,0.002678,0.000431,0.009402
80940000,0.0324,0.013523,0.002678,0.000431,0.009167
80941000,0.0324,0.013523,0.002678,0.000431,0.006699
80942000,0.0324,0.013523,0.002678,0.000431,0.007052
80943000,0.0324,0.013523,0.002678,0.000431,0.006817
80944000,0.0324,0.013523,0.002678,0.000431,0.006817
80945000,0.0324,0.013523,0.002678,0.000431,0.008227
80946000,0.0324,0.013523,0.002678,0.000431,0.007169
80947000,0.0324,0.013523,0.002678,0.000431,0.006229
80948000,0.0324,0.013523,0.002678,0.000431,0.006111
80949000,0.0324,0.013523,0.002678,0.000431,0.005994
80950000,0.0324,0.013523,0.002678,0.000431,0.005994
80951000,0.0324,0.013523,0.002678,0.000431,0.006229
80952000,0.0324,0.013523,0.002678,0.000431,0.005876
80953000,0.0324,0.013523,0.002678,0.000431,0.006464
80954000,0.0324,0.013523,0.002678,0.000431,0.005876
80955000,0.0324,0.013523,0.002678,0.000431,0.006111
80956000,0.0324,0.013523,0.002678,0.000431,0.006229
80957000,0.0324,0.013523,0.002678,0.000431,0.006817
80958000,0.0324,0.013523,0.002678,0.000431,0.006229
80959000,0.0324,0.013523,0.002678,0.000431,0.005054
80960000,0.0324,0.013523,0.002678,0.000431,0.005406
80961000,0.0324,0.013523,0.002678,0.000431,0.007052
80962000,0.0324,0.013523,0.002678,0.000431,0.004113
80963000,0.0324,0.013523,0.002678,0.000431,0.004466
80964000,0.0324,0.013523,0.002678,0.000431,0.003996
80965000,0.0324,0.013523,0.002678,0.000431,0.004113
80966000,0.0324,0.013523,0.002678,0.000431,0.004466
80967000,0.0324,0.013523,0.002678,0.000431,0.003996
80968000,0.0324,0.013523,0.002678,0.000431,0.004231
80969000,0.0324,0.013523,0.002678,0.000431,0.004113
80970000,0.0324,0.013523,0.002678,0.000431,0.004231
80971000,0.0324,0.013523,0.002678,0.000431,0.004231
80972000,0.0324,0.013523,0.002678,0.000431,0.004231
80973000,0.0324,0.013523,0.002678,0.000431,0.004349
80974000,0.0324,0.013523,0.002678,0.000431,0.004113
80975000,0.0324,0.013523,0.002678,0.000431,0.003996
80976000,0.0324,0.013523,0.002678,0.000431,0.004231
80977000,0.0324,0.013523,0.002678,0.000431,0.005054
80978000,0.0324,0.013523,0.002678,0.000431,0.004113
80979000,0.0324,0.013523,0.002678,0.000431,0.003291
80980000,0.0324,0.013523,0.002678,0.000431,0.003408
80981000,0.0324,0.013523,0.002678,0.000431,0.003173
80982000,0.0324,0.013523,0.002678,0.000431,0.003761
80983000,0.0324,0.013523,0.002678,0.000431,0.002938
80984000,0.0324,0.013523,0.002678,0.000431,0.003643
80985000,0.0324,0.013523,0.002678,0.000431,0.003526
80986000,0.0324,0.013523,0.002678,0.000431,0.003173
80987000,0.0324,0.013523,0.002678,0.000431,0.003408
80988000,0.0324,0.013523,0.002678,0.000431,0.003291
80989000,0.0324,0.013523,0.002678,0.000431,0.003526
80990000,0.0324,0.013523,0.002678,0.000431,0.003291
80991000,0.0324,0.013523,0.002678,0.000431,0.003291
80992000,0.0324,0.013523,0.002678,0.000431,0.003408
80993000,0.0324,0.013523,0.002678,0.000431,0.003291
80994000,0.0324,0.013523,0.002678,0.000431,0.003526
80995000,0.0324,0.013523,0.002678,0.000431,0.003173
80996000,0.0324,0.013523,0.002678,0.000431,0.003526
80997000,0.0324,0.013523,0.002678,0.000431,0.003291
80998000,0.0324,0.013523,0.002678,0.000431,0.003408
80999000,0.0324,0.013523,0.002678,0.000431,0.003173
