Cycle,Area(mm^2),PeakDynamic(W),SubthresholdLeakage(W),GateLeakage(W),RunTimeDynamic(W)
100,0.0324,0.013523,0.002678,0.000431,0.005876
200,0.0324,0.013523,0.002678,0.000431,0.000000
300,0.0324,0.013523,0.002678,0.000431,0.000000
400,0.0324,0.013523,0.002678,0.000431,0.000000
500,0.0324,0.013523,0.002678,0.000431,0.000000
600,0.0324,0.013523,0.002678,0.000431,0.000000
700,0.0324,0.013523,0.002678,0.000431,0.000000
800,0.0324,0.013523,0.002678,0.000431,0.000000
900,0.0324,0.013523,0.002678,0.000431,0.000000
1000,0.0324,0.013523,0.002678,0.000431,0.000000
1100,0.0324,0.013523,0.002678,0.000431,0.000000
1200,0.0324,0.013523,0.002678,0.000431,0.000000
1300,0.0324,0.013523,0.002678,0.000431,0.000000
1400,0.0324,0.013523,0.002678,0.000431,0.000000
1500,0.0324,0.013523,0.002678,0.000431,0.000000
1600,0.0324,0.013523,0.002678,0.000431,0.000000
1700,0.0324,0.013523,0.002678,0.000431,0.000000
1800,0.0324,0.013523,0.002678,0.000431,0.000000
1900,0.0324,0.013523,0.002678,0.000431,0.000000
2000,0.0324,0.013523,0.002678,0.000431,0.000000
2100,0.0324,0.013523,0.002678,0.000431,0.000000
2200,0.0324,0.013523,0.002678,0.000431,0.000000
2300,0.0324,0.013523,0.002678,0.000431,0.000000
2400,0.0324,0.013523,0.002678,0.000431,0.000000
2500,0.0324,0.013523,0.002678,0.000431,0.000000
2600,0.0324,0.013523,0.002678,0.000431,0.000000
2700,0.0324,0.013523,0.002678,0.000431,0.000000
2800,0.0324,0.013523,0.002678,0.000431,0.000000
2900,0.0324,0.013523,0.002678,0.000431,0.000000
3000,0.0324,0.013523,0.002678,0.000431,0.000000
3100,0.0324,0.013523,0.002678,0.000431,0.000000
3200,0.0324,0.013523,0.002678,0.000431,0.000000
3300,0.0324,0.013523,0.002678,0.000431,0.000000
3400,0.0324,0.013523,0.002678,0.000431,0.000000
3500,0.0324,0.013523,0.002678,0.000431,0.000000
3600,0.0324,0.013523,0.002678,0.000431,0.000000
3700,0.0324,0.013523,0.002678,0.000431,0.000000
3800,0.0324,0.013523,0.002678,0.000431,0.000000
3900,0.0324,0.013523,0.002678,0.000431,0.000000
4000,0.0324,0.013523,0.002678,0.000431,0.000000
4100,0.0324,0.013523,0.002678,0.000431,0.000000
4200,0.0324,0.013523,0.002678,0.000431,0.000000
4300,0.0324,0.013523,0.002678,0.000431,0.000000
4400,0.0324,0.013523,0.002678,0.000431,0.000000
4500,0.0324,0.013523,0.002678,0.000431,0.000000
4600,0.0324,0.013523,0.002678,0.000431,0.000000
4700,0.0324,0.013523,0.002678,0.000431,0.000000
4800,0.0324,0.013523,0.002678,0.000431,0.000000
4900,0.0324,0.013523,0.002678,0.000431,0.000000
5000,0.0324,0.013523,0.002678,0.000431,0.000000
5100,0.0324,0.013523,0.002678,0.000431,0.000000
5200,0.0324,0.013523,0.002678,0.000431,0.001175
5300,0.0324,0.013523,0.002678,0.000431,0.000000
5400,0.0324,0.013523,0.002678,0.000431,0.001175
5500,0.0324,0.013523,0.002678,0.000431,0.001175
5600,0.0324,0.013523,0.002678,0.000431,0.000000
5700,0.0324,0.013523,0.002678,0.000431,0.001175
5800,0.0324,0.013523,0.002678,0.000431,0.001175
5900,0.0324,0.013523,0.002678,0.000431,0.000000
6000,0.0324,0.013523,0.002678,0.000431,0.000000
6100,0.0324,0.013523,0.002678,0.000431,0.002351
6200,0.0324,0.013523,0.002678,0.000431,0.000000
6300,0.0324,0.013523,0.002678,0.000431,0.001175
6400,0.0324,0.013523,0.002678,0.000431,0.001175
6500,0.0324,0.013523,0.002678,0.000431,0.000000
6600,0.0324,0.013523,0.002678,0.000431,0.001175
6700,0.0324,0.013523,0.002678,0.000431,0.001175
6800,0.0324,0.013523,0.002678,0.000431,0.000000
6900,0.0324,0.013523,0.002678,0.000431,0.000000
7000,0.0324,0.013523,0.002678,0.000431,0.001175
7100,0.0324,0.013523,0.002678,0.000431,0.000000
7200,0.0324,0.013523,0.002678,0.000431,0.000000
7300,0.0324,0.013523,0.002678,0.000431,0.000000
7400,0.0324,0.013523,0.002678,0.000431,0.000000
7500,0.0324,0.013523,0.002678,0.000431,0.000000
7600,0.0324,0.013523,0.002678,0.000431,0.000000
7700,0.0324,0.013523,0.002678,0.000431,0.000000
7800,0.0324,0.013523,0.002678,0.000431,0.000000
7900,0.0324,0.013523,0.002678,0.000431,0.000000
8000,0.0324,0.013523,0.002678,0.000431,0.000000
8100,0.0324,0.013523,0.002678,0.000431,0.000000
8200,0.0324,0.013523,0.002678,0.000431,0.000000
8300,0.0324,0.013523,0.002678,0.000431,0.000000
8400,0.0324,0.013523,0.002678,0.000431,0.000000
8500,0.0324,0.013523,0.002678,0.000431,0.000000
8600,0.0324,0.013523,0.002678,0.000431,0.000000
8700,0.0324,0.013523,0.002678,0.000431,0.001175
8800,0.0324,0.013523,0.002678,0.000431,0.000000
8900,0.0324,0.013523,0.002678,0.000431,0.001175
9000,0.0324,0.013523,0.002678,0.000431,0.001175
9100,0.0324,0.013523,0.002678,0.000431,0.000000
9200,0.0324,0.013523,0.002678,0.000431,0.002351
9300,0.0324,0.013523,0.002678,0.000431,0.000000
9400,0.0324,0.013523,0.002678,0.000431,0.001175
9500,0.0324,0.013523,0.002678,0.000431,0.001175
9600,0.0324,0.013523,0.002678,0.000431,0.000000
9700,0.0324,0.013523,0.002678,0.000431,0.000000
9800,0.0324,0.013523,0.002678,0.000431,0.001175
9900,0.0324,0.013523,0.002678,0.000431,0.000000
10000,0.0324,0.013523,0.002678,0.000431,0.000000
10100,0.0324,0.013523,0.002678,0.000431,0.000000
10200,0.0324,0.013523,0.002678,0.000431,0.000000
10300,0.0324,0.013523,0.002678,0.000431,0.000000
10400,0.0324,0.013523,0.002678,0.000431,0.000000
10500,0.0324,0.013523,0.002678,0.000431,0.000000
10600,0.0324,0.013523,0.002678,0.000431,0.000000
10700,0.0324,0.013523,0.002678,0.000431,0.000000
10800,0.0324,0.013523,0.002678,0.000431,0.000000
10900,0.0324,0.013523,0.002678,0.000431,0.000000
11000,0.0324,0.013523,0.002678,0.000431,0.000000
11100,0.0324,0.013523,0.002678,0.000431,0.000000
11200,0.0324,0.013523,0.002678,0.000431,0.000000
11300,0.0324,0.013523,0.002678,0.000431,0.000000
11400,0.0324,0.013523,0.002678,0.000431,0.000000
11500,0.0324,0.013523,0.002678,0.000431,0.000000
11600,0.0324,0.013523,0.002678,0.000431,0.001175
11700,0.0324,0.013523,0.002678,0.000431,0.000000
11800,0.0324,0.013523,0.002678,0.000431,0.001175
11900,0.0324,0.013523,0.002678,0.000431,0.001175
12000,0.0324,0.013523,0.002678,0.000431,0.000000
12100,0.0324,0.013523,0.002678,0.000431,0.002351
12200,0.0324,0.013523,0.002678,0.000431,0.000000
12300,0.0324,0.013523,0.002678,0.000431,0.001175
12400,0.0324,0.013523,0.002678,0.000431,0.001175
12500,0.0324,0.013523,0.002678,0.000431,0.000000
12600,0.0324,0.013523,0.002678,0.000431,0.000000
12700,0.0324,0.013523,0.002678,0.000431,0.001175
12800,0.0324,0.013523,0.002678,0.000431,0.000000
12900,0.0324,0.013523,0.002678,0.000431,0.000000
13000,0.0324,0.013523,0.002678,0.000431,0.000000
13100,0.0324,0.013523,0.002678,0.000431,0.000000
13200,0.0324,0.013523,0.002678,0.000431,0.000000
13300,0.0324,0.013523,0.002678,0.000431,0.000000
13400,0.0324,0.013523,0.002678,0.000431,0.000000
13500,0.0324,0.013523,0.002678,0.000431,0.000000
13600,0.0324,0.013523,0.002678,0.000431,0.000000
13700,0.0324,0.013523,0.002678,0.000431,0.000000
13800,0.0324,0.013523,0.002678,0.000431,0.000000
13900,0.0324,0.013523,0.002678,0.000431,0.000000
14000,0.0324,0.013523,0.002678,0.000431,0.000000
14100,0.0324,0.013523,0.002678,0.000431,0.000000
14200,0.0324,0.013523,0.002678,0.000431,0.000000
14300,0.0324,0.013523,0.002678,0.000431,0.000000
14400,0.0324,0.013523,0.002678,0.000431,0.000000
14500,0.0324,0.013523,0.002678,0.000431,0.001175
14600,0.0324,0.013523,0.002678,0.000431,0.000000
14700,0.0324,0.013523,0.002678,0.000431,0.002351
14800,0.0324,0.013523,0.002678,0.000431,0.000000
14900,0.0324,0.013523,0.002678,0.000431,0.001175
15000,0.0324,0.013523,0.002678,0.000431,0.001175
15100,0.0324,0.013523,0.002678,0.000431,0.000000
15200,0.0324,0.013523,0.002678,0.000431,0.001175
15300,0.0324,0.013523,0.002678,0.000431,0.001175
15400,0.0324,0.013523,0.002678,0.000431,0.000000
15500,0.0324,0.013523,0.002678,0.000431,0.000000
15600,0.0324,0.013523,0.002678,0.000431,0.001175
15700,0.0324,0.013523,0.002678,0.000431,0.000000
15800,0.0324,0.013523,0.002678,0.000431,0.000000
15900,0.0324,0.013523,0.002678,0.000431,0.000000
16000,0.0324,0.013523,0.002678,0.000431,0.000000
16100,0.0324,0.013523,0.002678,0.000431,0.000000
16200,0.0324,0.013523,0.002678,0.000431,0.000000
16300,0.0324,0.013523,0.002678,0.000431,0.000000
16400,0.0324,0.013523,0.002678,0.000431,0.000000
16500,0.0324,0.013523,0.002678,0.000431,0.000000
16600,0.0324,0.013523,0.002678,0.000431,0.000000
16700,0.0324,0.013523,0.002678,0.000431,0.000000
16800,0.0324,0.013523,0.002678,0.000431,0.000000
16900,0.0324,0.013523,0.002678,0.000431,0.000000
17000,0.0324,0.013523,0.002678,0.000431,0.000000
17100,0.0324,0.013523,0.002678,0.000431,0.000000
17200,0.0324,0.013523,0.002678,0.000431,0.000000
17300,0.0324,0.013523,0.002678,0.000431,0.001175
17400,0.0324,0.013523,0.002678,0.000431,0.000000
17500,0.0324,0.013523,0.002678,0.000431,0.001175
17600,0.0324,0.013523,0.002678,0.000431,0.001175
17700,0.0324,0.013523,0.002678,0.000431,0.000000
17800,0.0324,0.013523,0.002678,0.000431,0.001175
17900,0.0324,0.013523,0.002678,0.000431,0.001175
18000,0.0324,0.013523,0.002678,0.000431,0.000000
18100,0.0324,0.013523,0.002678,0.000431,0.002351
18200,0.0324,0.013523,0.002678,0.000431,0.000000
18300,0.0324,0.013523,0.002678,0.000431,0.000000
18400,0.0324,0.013523,0.002678,0.000431,0.001175
18500,0.0324,0.013523,0.002678,0.000431,0.000000
18600,0.0324,0.013523,0.002678,0.000431,0.000000
18700,0.0324,0.013523,0.002678,0.000431,0.000000
18800,0.0324,0.013523,0.002678,0.000431,0.000000
18900,0.0324,0.013523,0.002678,0.000431,0.000000
19000,0.0324,0.013523,0.002678,0.000431,0.000000
19100,0.0324,0.013523,0.002678,0.000431,0.000000
19200,0.0324,0.013523,0.002678,0.000431,0.000000
19300,0.0324,0.013523,0.002678,0.000431,0.000000
19400,0.0324,0.013523,0.002678,0.000431,0.000000
19500,0.0324,0.013523,0.002678,0.000431,0.000000
19600,0.0324,0.013523,0.002678,0.000431,0.000000
19700,0.0324,0.013523,0.002678,0.000431,0.000000
19800,0.0324,0.013523,0.002678,0.000431,0.000000
19900,0.0324,0.013523,0.002678,0.000431,0.000000
20000,0.0324,0.013523,0.002678,0.000431,0.000000
20100,0.0324,0.013523,0.002678,0.000431,0.000000
20200,0.0324,0.013523,0.002678,0.000431,0.001175
20300,0.0324,0.013523,0.002678,0.000431,0.000000
20400,0.0324,0.013523,0.002678,0.000431,0.001175
20500,0.0324,0.013523,0.002678,0.000431,0.001175
20600,0.0324,0.013523,0.002678,0.000431,0.000000
20700,0.0324,0.013523,0.002678,0.000431,0.001175
20800,0.0324,0.013523,0.002678,0.000431,0.001175
20900,0.0324,0.013523,0.002678,0.000431,0.000000
21000,0.0324,0.013523,0.002678,0.000431,0.002351
21100,0.0324,0.013523,0.002678,0.000431,0.000000
21200,0.0324,0.013523,0.002678,0.000431,0.000000
21300,0.0324,0.013523,0.002678,0.000431,0.001175
21400,0.0324,0.013523,0.002678,0.000431,0.000000
21500,0.0324,0.013523,0.002678,0.000431,0.000000
21600,0.0324,0.013523,0.002678,0.000431,0.000000
21700,0.0324,0.013523,0.002678,0.000431,0.000000
21800,0.0324,0.013523,0.002678,0.000431,0.000000
21900,0.0324,0.013523,0.002678,0.000431,0.000000
22000,0.0324,0.013523,0.002678,0.000431,0.000000
22100,0.0324,0.013523,0.002678,0.000431,0.000000
22200,0.0324,0.013523,0.002678,0.000431,0.000000
22300,0.0324,0.013523,0.002678,0.000431,0.000000
22400,0.0324,0.013523,0.002678,0.000431,0.000000
22500,0.0324,0.013523,0.002678,0.000431,0.000000
22600,0.0324,0.013523,0.002678,0.000431,0.000000
22700,0.0324,0.013523,0.002678,0.000431,0.000000
22800,0.0324,0.013523,0.002678,0.000431,0.000000
22900,0.0324,0.013523,0.002678,0.000431,0.000000
23000,0.0324,0.013523,0.002678,0.000431,0.000000
23100,0.0324,0.013523,0.002678,0.000431,0.001175
23200,0.0324,0.013523,0.002678,0.000431,0.000000
23300,0.0324,0.013523,0.002678,0.000431,0.001175
23400,0.0324,0.013523,0.002678,0.000431,0.001175
23500,0.0324,0.013523,0.002678,0.000431,0.000000
23600,0.0324,0.013523,0.002678,0.000431,0.001175
23700,0.0324,0.013523,0.002678,0.000431,0.001175
23800,0.0324,0.013523,0.002678,0.000431,0.000000
23900,0.0324,0.013523,0.002678,0.000431,0.002351
24000,0.0324,0.013523,0.002678,0.000431,0.000000
24100,0.0324,0.013523,0.002678,0.000431,0.000000
24200,0.0324,0.013523,0.002678,0.000431,0.001175
24300,0.0324,0.013523,0.002678,0.000431,0.000000
24400,0.0324,0.013523,0.002678,0.000431,0.000000
24500,0.0324,0.013523,0.002678,0.000431,0.000000
24600,0.0324,0.013523,0.002678,0.000431,0.000000
24700,0.0324,0.013523,0.002678,0.000431,0.000000
24800,0.0324,0.013523,0.002678,0.000431,0.000000
24900,0.0324,0.013523,0.002678,0.000431,0.000000
25000,0.0324,0.013523,0.002678,0.000431,0.000000
25100,0.0324,0.013523,0.002678,0.000431,0.000000
25200,0.0324,0.013523,0.002678,0.000431,0.000000
25300,0.0324,0.013523,0.002678,0.000431,0.000000
25400,0.0324,0.013523,0.002678,0.000431,0.000000
25500,0.0324,0.013523,0.002678,0.000431,0.000000
25600,0.0324,0.013523,0.002678,0.000431,0.000000
25700,0.0324,0.013523,0.002678,0.000431,0.000000
25800,0.0324,0.013523,0.002678,0.000431,0.000000
25900,0.0324,0.013523,0.002678,0.000431,0.000000
26000,0.0324,0.013523,0.002678,0.000431,0.001175
26100,0.0324,0.013523,0.002678,0.000431,0.000000
26200,0.0324,0.013523,0.002678,0.000431,0.001175
26300,0.0324,0.013523,0.002678,0.000431,0.001175
26400,0.0324,0.013523,0.002678,0.000431,0.000000
26500,0.0324,0.013523,0.002678,0.000431,0.001175
26600,0.0324,0.013523,0.002678,0.000431,0.001175
26700,0.0324,0.013523,0.002678,0.000431,0.000000
26800,0.0324,0.013523,0.002678,0.000431,0.002351
26900,0.0324,0.013523,0.002678,0.000431,0.000000
27000,0.0324,0.013523,0.002678,0.000431,0.000000
27100,0.0324,0.013523,0.002678,0.000431,0.001175
27200,0.0324,0.013523,0.002678,0.000431,0.000000
27300,0.0324,0.013523,0.002678,0.000431,0.000000
27400,0.0324,0.013523,0.002678,0.000431,0.000000
27500,0.0324,0.013523,0.002678,0.000431,0.000000
27600,0.0324,0.013523,0.002678,0.000431,0.000000
27700,0.0324,0.013523,0.002678,0.000431,0.000000
27800,0.0324,0.013523,0.002678,0.000431,0.000000
27900,0.0324,0.013523,0.002678,0.000431,0.000000
28000,0.0324,0.013523,0.002678,0.000431,0.000000
28100,0.0324,0.013523,0.002678,0.000431,0.000000
28200,0.0324,0.013523,0.002678,0.000431,0.000000
28300,0.0324,0.013523,0.002678,0.000431,0.000000
28400,0.0324,0.013523,0.002678,0.000431,0.000000
28500,0.0324,0.013523,0.002678,0.000431,0.000000
28600,0.0324,0.013523,0.002678,0.000431,0.000000
28700,0.0324,0.013523,0.002678,0.000431,0.000000
28800,0.0324,0.013523,0.002678,0.000431,0.000000
28900,0.0324,0.013523,0.002678,0.000431,0.001175
29000,0.0324,0.013523,0.002678,0.000431,0.000000
29100,0.0324,0.013523,0.002678,0.000431,0.001175
29200,0.0324,0.013523,0.002678,0.000431,0.001175
29300,0.0324,0.013523,0.002678,0.000431,0.000000
29400,0.0324,0.013523,0.002678,0.000431,0.002351
29500,0.0324,0.013523,0.002678,0.000431,0.000000
29600,0.0324,0.013523,0.002678,0.000431,0.001175
29700,0.0324,0.013523,0.002678,0.000431,0.001175
29800,0.0324,0.013523,0.002678,0.000431,0.000000
29900,0.0324,0.013523,0.002678,0.000431,0.000000
30000,0.0324,0.013523,0.002678,0.000431,0.001175
30100,0.0324,0.013523,0.002678,0.000431,0.000000
30200,0.0324,0.013523,0.002678,0.000431,0.000000
30300,0.0324,0.013523,0.002678,0.000431,0.000000
30400,0.0324,0.013523,0.002678,0.000431,0.000000
30500,0.0324,0.013523,0.002678,0.000431,0.000000
30600,0.0324,0.013523,0.002678,0.000431,0.000000
30700,0.0324,0.013523,0.002678,0.000431,0.000000
30800,0.0324,0.013523,0.002678,0.000431,0.000000
30900,0.0324,0.013523,0.002678,0.000431,0.000000
31000,0.0324,0.013523,0.002678,0.000431,0.000000
31100,0.0324,0.013523,0.002678,0.000431,0.000000
31200,0.0324,0.013523,0.002678,0.000431,0.000000
31300,0.0324,0.013523,0.002678,0.000431,0.000000
31400,0.0324,0.013523,0.002678,0.000431,0.000000
31500,0.0324,0.013523,0.002678,0.000431,0.000000
31600,0.0324,0.013523,0.002678,0.000431,0.000000
31700,0.0324,0.013523,0.002678,0.000431,0.000000
31800,0.0324,0.013523,0.002678,0.000431,0.001175
31900,0.0324,0.013523,0.002678,0.000431,0.000000
32000,0.0324,0.013523,0.002678,0.000431,0.001175
32100,0.0324,0.013523,0.002678,0.000431,0.001175
32200,0.0324,0.013523,0.002678,0.000431,0.000000
32300,0.0324,0.013523,0.002678,0.000431,0.002351
32400,0.0324,0.013523,0.002678,0.000431,0.000000
32500,0.0324,0.013523,0.002678,0.000431,0.001175
32600,0.0324,0.013523,0.002678,0.000431,0.001175
32700,0.0324,0.013523,0.002678,0.000431,0.000000
32800,0.0324,0.013523,0.002678,0.000431,0.000000
32900,0.0324,0.013523,0.002678,0.000431,0.001175
33000,0.0324,0.013523,0.002678,0.000431,0.000000
33100,0.0324,0.013523,0.002678,0.000431,0.000000
33200,0.0324,0.013523,0.002678,0.000431,0.000000
33300,0.0324,0.013523,0.002678,0.000431,0.000000
33400,0.0324,0.013523,0.002678,0.000431,0.000000
33500,0.0324,0.013523,0.002678,0.000431,0.000000
33600,0.0324,0.013523,0.002678,0.000431,0.000000
33700,0.0324,0.013523,0.002678,0.000431,0.000000
33800,0.0324,0.013523,0.002678,0.000431,0.000000
33900,0.0324,0.013523,0.002678,0.000431,0.000000
34000,0.0324,0.013523,0.002678,0.000431,0.000000
34100,0.0324,0.013523,0.002678,0.000431,0.000000
34200,0.0324,0.013523,0.002678,0.000431,0.000000
34300,0.0324,0.013523,0.002678,0.000431,0.000000
34400,0.0324,0.013523,0.002678,0.000431,0.000000
34500,0.0324,0.013523,0.002678,0.000431,0.000000
34600,0.0324,0.013523,0.002678,0.000431,0.000000
34700,0.0324,0.013523,0.002678,0.000431,0.001175
34800,0.0324,0.013523,0.002678,0.000431,0.000000
34900,0.0324,0.013523,0.002678,0.000431,0.001175
35000,0.0324,0.013523,0.002678,0.000431,0.001175
35100,0.0324,0.013523,0.002678,0.000431,0.000000
35200,0.0324,0.013523,0.002678,0.000431,0.002351
35300,0.0324,0.013523,0.002678,0.000431,0.000000
35400,0.0324,0.013523,0.002678,0.000431,0.001175
35500,0.0324,0.013523,0.002678,0.000431,0.001175
35600,0.0324,0.013523,0.002678,0.000431,0.000000
35700,0.0324,0.013523,0.002678,0.000431,0.000000
35800,0.0324,0.013523,0.002678,0.000431,0.001175
35900,0.0324,0.013523,0.002678,0.000431,0.000000
36000,0.0324,0.013523,0.002678,0.000431,0.000000
36100,0.0324,0.013523,0.002678,0.000431,0.000000
36200,0.0324,0.013523,0.002678,0.000431,0.000000
36300,0.0324,0.013523,0.002678,0.000431,0.000000
36400,0.0324,0.013523,0.002678,0.000431,0.000000
36500,0.0324,0.013523,0.002678,0.000431,0.000000
36600,0.0324,0.013523,0.002678,0.000431,0.000000
36700,0.0324,0.013523,0.002678,0.000431,0.000000
36800,0.0324,0.013523,0.002678,0.000431,0.000000
36900,0.0324,0.013523,0.002678,0.000431,0.000000
37000,0.0324,0.013523,0.002678,0.000431,0.000000
37100,0.0324,0.013523,0.002678,0.000431,0.000000
37200,0.0324,0.013523,0.002678,0.000431,0.000000
37300,0.0324,0.013523,0.002678,0.000431,0.000000
37400,0.0324,0.013523,0.002678,0.000431,0.000000
37500,0.0324,0.013523,0.002678,0.000431,0.000000
37600,0.0324,0.013523,0.002678,0.000431,0.001175
37700,0.0324,0.013523,0.002678,0.000431,0.000000
37800,0.0324,0.013523,0.002678,0.000431,0.002351
37900,0.0324,0.013523,0.002678,0.000431,0.000000
38000,0.0324,0.013523,0.002678,0.000431,0.001175
38100,0.0324,0.013523,0.002678,0.000431,0.001175
38200,0.0324,0.013523,0.002678,0.000431,0.000000
38300,0.0324,0.013523,0.002678,0.000431,0.002351
38400,0.0324,0.013523,0.002678,0.000431,0.000000
38500,0.0324,0.013523,0.002678,0.000431,0.000000
38600,0.0324,0.013523,0.002678,0.000431,0.000000
38700,0.0324,0.013523,0.002678,0.000431,0.001175
38800,0.0324,0.013523,0.002678,0.000431,0.000000
38900,0.0324,0.013523,0.002678,0.000431,0.000000
39000,0.0324,0.013523,0.002678,0.000431,0.000000
39100,0.0324,0.013523,0.002678,0.000431,0.000000
39200,0.0324,0.013523,0.002678,0.000431,0.000000
39300,0.0324,0.013523,0.002678,0.000431,0.000000
39400,0.0324,0.013523,0.002678,0.000431,0.000000
39500,0.0324,0.013523,0.002678,0.000431,0.000000
39600,0.0324,0.013523,0.002678,0.000431,0.000000
39700,0.0324,0.013523,0.002678,0.000431,0.000000
39800,0.0324,0.013523,0.002678,0.000431,0.000000
39900,0.0324,0.013523,0.002678,0.000431,0.000000
40000,0.0324,0.013523,0.002678,0.000431,0.000000
40100,0.0324,0.013523,0.002678,0.000431,0.000000
40200,0.0324,0.013523,0.002678,0.000431,0.000000
40300,0.0324,0.013523,0.002678,0.000431,0.000000
40400,0.0324,0.013523,0.002678,0.000431,0.001175
40500,0.0324,0.013523,0.002678,0.000431,0.000000
40600,0.0324,0.013523,0.002678,0.000431,0.001175
40700,0.0324,0.013523,0.002678,0.000431,0.001175
40800,0.0324,0.013523,0.002678,0.000431,0.000000
40900,0.0324,0.013523,0.002678,0.000431,0.001175
41000,0.0324,0.013523,0.002678,0.000431,0.001175
41100,0.0324,0.013523,0.002678,0.000431,0.000000
41200,0.0324,0.013523,0.002678,0.000431,0.002351
41300,0.0324,0.013523,0.002678,0.000431,0.000000
41400,0.0324,0.013523,0.002678,0.000431,0.000000
41500,0.0324,0.013523,0.002678,0.000431,0.001175
41600,0.0324,0.013523,0.002678,0.000431,0.000000
41700,0.0324,0.013523,0.002678,0.000431,0.000000
41800,0.0324,0.013523,0.002678,0.000431,0.000000
41900,0.0324,0.013523,0.002678,0.000431,0.000000
42000,0.0324,0.013523,0.002678,0.000431,0.000000
42100,0.0324,0.013523,0.002678,0.000431,0.000000
42200,0.0324,0.013523,0.002678,0.000431,0.000000
42300,0.0324,0.013523,0.002678,0.000431,0.000000
42400,0.0324,0.013523,0.002678,0.000431,0.000000
42500,0.0324,0.013523,0.002678,0.000431,0.000000
42600,0.0324,0.013523,0.002678,0.000431,0.000000
42700,0.0324,0.013523,0.002678,0.000431,0.000000
42800,0.0324,0.013523,0.002678,0.000431,0.000000
42900,0.0324,0.013523,0.002678,0.000431,0.000000
43000,0.0324,0.013523,0.002678,0.000431,0.000000
43100,0.0324,0.013523,0.002678,0.000431,0.000000
43200,0.0324,0.013523,0.002678,0.000431,0.000000
43300,0.0324,0.013523,0.002678,0.000431,0.001175
43400,0.0324,0.013523,0.002678,0.000431,0.000000
43500,0.0324,0.013523,0.002678,0.000431,0.001175
43600,0.0324,0.013523,0.002678,0.000431,0.001175
43700,0.0324,0.013523,0.002678,0.000431,0.000000
43800,0.0324,0.013523,0.002678,0.000431,0.001175
43900,0.0324,0.013523,0.002678,0.000431,0.001175
44000,0.0324,0.013523,0.002678,0.000431,0.000000
44100,0.0324,0.013523,0.002678,0.000431,0.002351
44200,0.0324,0.013523,0.002678,0.000431,0.000000
44300,0.0324,0.013523,0.002678,0.000431,0.000000
44400,0.0324,0.013523,0.002678,0.000431,0.001175
44500,0.0324,0.013523,0.002678,0.000431,0.000000
44600,0.0324,0.013523,0.002678,0.000431,0.000000
44700,0.0324,0.013523,0.002678,0.000431,0.000000
44800,0.0324,0.013523,0.002678,0.000431,0.000000
44900,0.0324,0.013523,0.002678,0.000431,0.000000
45000,0.0324,0.013523,0.002678,0.000431,0.000000
45100,0.0324,0.013523,0.002678,0.000431,0.000000
45200,0.0324,0.013523,0.002678,0.000431,0.000000
45300,0.0324,0.013523,0.002678,0.000431,0.000000
45400,0.0324,0.013523,0.002678,0.000431,0.000000
45500,0.0324,0.013523,0.002678,0.000431,0.000000
45600,0.0324,0.013523,0.002678,0.000431,0.000000
45700,0.0324,0.013523,0.002678,0.000431,0.000000
45800,0.0324,0.013523,0.002678,0.000431,0.000000
45900,0.0324,0.013523,0.002678,0.000431,0.000000
46000,0.0324,0.013523,0.002678,0.000431,0.000000
46100,0.0324,0.013523,0.002678,0.000431,0.000000
46200,0.0324,0.013523,0.002678,0.000431,0.001175
46300,0.0324,0.013523,0.002678,0.000431,0.000000
46400,0.0324,0.013523,0.002678,0.000431,0.001175
46500,0.0324,0.013523,0.002678,0.000431,0.001175
46600,0.0324,0.013523,0.002678,0.000431,0.000000
46700,0.0324,0.013523,0.002678,0.000431,0.001175
46800,0.0324,0.013523,0.002678,0.000431,0.001175
46900,0.0324,0.013523,0.002678,0.000431,0.000000
47000,0.0324,0.013523,0.002678,0.000431,0.002351
47100,0.0324,0.013523,0.002678,0.000431,0.000000
47200,0.0324,0.013523,0.002678,0.000431,0.000000
47300,0.0324,0.013523,0.002678,0.000431,0.001175
47400,0.0324,0.013523,0.002678,0.000431,0.000000
47500,0.0324,0.013523,0.002678,0.000431,0.000000
47600,0.0324,0.013523,0.002678,0.000431,0.000000
47700,0.0324,0.013523,0.002678,0.000431,0.000000
47800,0.0324,0.013523,0.002678,0.000431,0.000000
47900,0.0324,0.013523,0.002678,0.000431,0.000000
48000,0.0324,0.013523,0.002678,0.000431,0.000000
48100,0.0324,0.013523,0.002678,0.000431,0.000000
48200,0.0324,0.013523,0.002678,0.000431,0.000000
48300,0.0324,0.013523,0.002678,0.000431,0.000000
48400,0.0324,0.013523,0.002678,0.000431,0.000000
48500,0.0324,0.013523,0.002678,0.000431,0.000000
48600,0.0324,0.013523,0.002678,0.000431,0.000000
48700,0.0324,0.013523,0.002678,0.000431,0.000000
48800,0.0324,0.013523,0.002678,0.000431,0.000000
48900,0.0324,0.013523,0.002678,0.000431,0.000000
49000,0.0324,0.013523,0.002678,0.000431,0.000000
49100,0.0324,0.013523,0.002678,0.000431,0.001175
49200,0.0324,0.013523,0.002678,0.000431,0.000000
49300,0.0324,0.013523,0.002678,0.000431,0.001175
49400,0.0324,0.013523,0.002678,0.000431,0.001175
49500,0.0324,0.013523,0.002678,0.000431,0.000000
49600,0.0324,0.013523,0.002678,0.000431,0.002351
49700,0.0324,0.013523,0.002678,0.000431,0.000000
49800,0.0324,0.013523,0.002678,0.000431,0.001175
49900,0.0324,0.013523,0.002678,0.000431,0.001175
50000,0.0324,0.013523,0.002678,0.000431,0.000000
50100,0.0324,0.013523,0.002678,0.000431,0.000000
50200,0.0324,0.013523,0.002678,0.000431,0.001175
50300,0.0324,0.013523,0.002678,0.000431,0.000000
50400,0.0324,0.013523,0.002678,0.000431,0.000000
50500,0.0324,0.013523,0.002678,0.000431,0.000000
50600,0.0324,0.013523,0.002678,0.000431,0.000000
50700,0.0324,0.013523,0.002678,0.000431,0.000000
50800,0.0324,0.013523,0.002678,0.000431,0.000000
50900,0.0324,0.013523,0.002678,0.000431,0.000000
51000,0.0324,0.013523,0.002678,0.000431,0.000000
51100,0.0324,0.013523,0.002678,0.000431,0.000000
51200,0.0324,0.013523,0.002678,0.000431,0.000000
51300,0.0324,0.013523,0.002678,0.000431,0.000000
51400,0.0324,0.013523,0.002678,0.000431,0.000000
51500,0.0324,0.013523,0.002678,0.000431,0.000000
51600,0.0324,0.013523,0.002678,0.000431,0.000000
51700,0.0324,0.013523,0.002678,0.000431,0.000000
51800,0.0324,0.013523,0.002678,0.000431,0.000000
51900,0.0324,0.013523,0.002678,0.000431,0.000000
52000,0.0324,0.013523,0.002678,0.000431,0.001175
52100,0.0324,0.013523,0.002678,0.000431,0.000000
52200,0.0324,0.013523,0.002678,0.000431,0.001175
52300,0.0324,0.013523,0.002678,0.000431,0.001175
52400,0.0324,0.013523,0.002678,0.000431,0.000000
52500,0.0324,0.013523,0.002678,0.000431,0.002351
52600,0.0324,0.013523,0.002678,0.000431,0.000000
52700,0.0324,0.013523,0.002678,0.000431,0.001175
52800,0.0324,0.013523,0.002678,0.000431,0.001175
52900,0.0324,0.013523,0.002678,0.000431,0.000000
53000,0.0324,0.013523,0.002678,0.000431,0.000000
53100,0.0324,0.013523,0.002678,0.000431,0.001175
53200,0.0324,0.013523,0.002678,0.000431,0.000000
53300,0.0324,0.013523,0.002678,0.000431,0.000000
53400,0.0324,0.013523,0.002678,0.000431,0.000000
53500,0.0324,0.013523,0.002678,0.000431,0.000000
53600,0.0324,0.013523,0.002678,0.000431,0.000000
53700,0.0324,0.013523,0.002678,0.000431,0.000000
53800,0.0324,0.013523,0.002678,0.000431,0.000000
53900,0.0324,0.013523,0.002678,0.000431,0.000000
54000,0.0324,0.013523,0.002678,0.000431,0.000000
54100,0.0324,0.013523,0.002678,0.000431,0.000000
54200,0.0324,0.013523,0.002678,0.000431,0.000000
54300,0.0324,0.013523,0.002678,0.000431,0.000000
54400,0.0324,0.013523,0.002678,0.000431,0.000000
54500,0.0324,0.013523,0.002678,0.000431,0.000000
54600,0.0324,0.013523,0.002678,0.000431,0.000000
54700,0.0324,0.013523,0.002678,0.000431,0.000000
54800,0.0324,0.013523,0.002678,0.000431,0.000000
54900,0.0324,0.013523,0.002678,0.000431,0.001175
55000,0.0324,0.013523,0.002678,0.000431,0.000000
55100,0.0324,0.013523,0.002678,0.000431,0.001175
55200,0.0324,0.013523,0.002678,0.000431,0.001175
55300,0.0324,0.013523,0.002678,0.000431,0.000000
55400,0.0324,0.013523,0.002678,0.000431,0.002351
55500,0.0324,0.013523,0.002678,0.000431,0.000000
55600,0.0324,0.013523,0.002678,0.000431,0.001175
55700,0.0324,0.013523,0.002678,0.000431,0.001175
55800,0.0324,0.013523,0.002678,0.000431,0.000000
55900,0.0324,0.013523,0.002678,0.000431,0.000000
56000,0.0324,0.013523,0.002678,0.000431,0.001175
56100,0.0324,0.013523,0.002678,0.000431,0.000000
56200,0.0324,0.013523,0.002678,0.000431,0.000000
56300,0.0324,0.013523,0.002678,0.000431,0.000000
56400,0.0324,0.013523,0.002678,0.000431,0.000000
56500,0.0324,0.013523,0.002678,0.000431,0.000000
56600,0.0324,0.013523,0.002678,0.000431,0.000000
56700,0.0324,0.013523,0.002678,0.000431,0.000000
56800,0.0324,0.013523,0.002678,0.000431,0.000000
56900,0.0324,0.013523,0.002678,0.000431,0.000000
57000,0.0324,0.013523,0.002678,0.000431,0.000000
57100,0.0324,0.013523,0.002678,0.000431,0.000000
57200,0.0324,0.013523,0.002678,0.000431,0.000000
57300,0.0324,0.013523,0.002678,0.000431,0.000000
57400,0.0324,0.013523,0.002678,0.000431,0.000000
57500,0.0324,0.013523,0.002678,0.000431,0.000000
57600,0.0324,0.013523,0.002678,0.000431,0.000000
57700,0.0324,0.013523,0.002678,0.000431,0.000000
57800,0.0324,0.013523,0.002678,0.000431,0.001175
57900,0.0324,0.013523,0.002678,0.000431,0.000000
58000,0.0324,0.013523,0.002678,0.000431,0.001175
58100,0.0324,0.013523,0.002678,0.000431,0.001175
58200,0.0324,0.013523,0.002678,0.000431,0.000000
58300,0.0324,0.013523,0.002678,0.000431,0.002351
58400,0.0324,0.013523,0.002678,0.000431,0.000000
58500,0.0324,0.013523,0.002678,0.000431,0.001175
58600,0.0324,0.013523,0.002678,0.000431,0.001175
58700,0.0324,0.013523,0.002678,0.000431,0.000000
58800,0.0324,0.013523,0.002678,0.000431,0.000000
58900,0.0324,0.013523,0.002678,0.000431,0.001175
59000,0.0324,0.013523,0.002678,0.000431,0.000000
59100,0.0324,0.013523,0.002678,0.000431,0.000000
59200,0.0324,0.013523,0.002678,0.000431,0.000000
59300,0.0324,0.013523,0.002678,0.000431,0.000000
59400,0.0324,0.013523,0.002678,0.000431,0.000000
59500,0.0324,0.013523,0.002678,0.000431,0.000000
59600,0.0324,0.013523,0.002678,0.000431,0.000000
59700,0.0324,0.013523,0.002678,0.000431,0.000000
59800,0.0324,0.013523,0.002678,0.000431,0.000000
59900,0.0324,0.013523,0.002678,0.000431,0.000000
60000,0.0324,0.013523,0.002678,0.000431,0.000000
60100,0.0324,0.013523,0.002678,0.000431,0.000000
60200,0.0324,0.013523,0.002678,0.000431,0.000000
60300,0.0324,0.013523,0.002678,0.000431,0.000000
60400,0.0324,0.013523,0.002678,0.000431,0.000000
60500,0.0324,0.013523,0.002678,0.000431,0.000000
60600,0.0324,0.013523,0.002678,0.000431,0.001175
60700,0.0324,0.013523,0.002678,0.000431,0.000000
60800,0.0324,0.013523,0.002678,0.000431,0.001175
60900,0.0324,0.013523,0.002678,0.000431,0.001175
61000,0.0324,0.013523,0.002678,0.000431,0.000000
61100,0.0324,0.013523,0.002678,0.000431,0.001175
61200,0.0324,0.013523,0.002678,0.000431,0.001175
61300,0.0324,0.013523,0.002678,0.000431,0.000000
61400,0.0324,0.013523,0.002678,0.000431,0.002351
61500,0.0324,0.013523,0.002678,0.000431,0.000000
61600,0.0324,0.013523,0.002678,0.000431,0.000000
61700,0.0324,0.013523,0.002678,0.000431,0.000000
61800,0.0324,0.013523,0.002678,0.000431,0.001175
61900,0.0324,0.013523,0.002678,0.000431,0.000000
62000,0.0324,0.013523,0.002678,0.000431,0.000000
62100,0.0324,0.013523,0.002678,0.000431,0.000000
62200,0.0324,0.013523,0.002678,0.000431,0.000000
62300,0.0324,0.013523,0.002678,0.000431,0.000000
62400,0.0324,0.013523,0.002678,0.000431,0.000000
62500,0.0324,0.013523,0.002678,0.000431,0.000000
62600,0.0324,0.013523,0.002678,0.000431,0.000000
62700,0.0324,0.013523,0.002678,0.000431,0.000000
62800,0.0324,0.013523,0.002678,0.000431,0.000000
62900,0.0324,0.013523,0.002678,0.000431,0.000000
63000,0.0324,0.013523,0.002678,0.000431,0.000000
63100,0.0324,0.013523,0.002678,0.000431,0.000000
63200,0.0324,0.013523,0.002678,0.000431,0.000000
63300,0.0324,0.013523,0.002678,0.000431,0.000000
63400,0.0324,0.013523,0.002678,0.000431,0.000000
63500,0.0324,0.013523,0.002678,0.000431,0.001175
63600,0.0324,0.013523,0.002678,0.000431,0.000000
63700,0.0324,0.013523,0.002678,0.000431,0.001175
63800,0.0324,0.013523,0.002678,0.000431,0.001175
63900,0.0324,0.013523,0.002678,0.000431,0.000000
64000,0.0324,0.013523,0.002678,0.000431,0.001175
64100,0.0324,0.013523,0.002678,0.000431,0.001175
64200,0.0324,0.013523,0.002678,0.000431,0.000000
64300,0.0324,0.013523,0.002678,0.000431,0.002351
64400,0.0324,0.013523,0.002678,0.000431,0.000000
64500,0.0324,0.013523,0.002678,0.000431,0.000000
64600,0.0324,0.013523,0.002678,0.000431,0.001175
64700,0.0324,0.013523,0.002678,0.000431,0.000000
64800,0.0324,0.013523,0.002678,0.000431,0.000000
64900,0.0324,0.013523,0.002678,0.000431,0.000000
65000,0.0324,0.013523,0.002678,0.000431,0.000000
65100,0.0324,0.013523,0.002678,0.000431,0.000000
65200,0.0324,0.013523,0.002678,0.000431,0.000000
65300,0.0324,0.013523,0.002678,0.000431,0.000000
65400,0.0324,0.013523,0.002678,0.000431,0.000000
65500,0.0324,0.013523,0.002678,0.000431,0.000000
65600,0.0324,0.013523,0.002678,0.000431,0.000000
65700,0.0324,0.013523,0.002678,0.000431,0.000000
65800,0.0324,0.013523,0.002678,0.000431,0.000000
65900,0.0324,0.013523,0.002678,0.000431,0.000000
66000,0.0324,0.013523,0.002678,0.000431,0.000000
66100,0.0324,0.013523,0.002678,0.000431,0.000000
66200,0.0324,0.013523,0.002678,0.000431,0.000000
66300,0.0324,0.013523,0.002678,0.000431,0.000000
66400,0.0324,0.013523,0.002678,0.000431,0.001175
66500,0.0324,0.013523,0.002678,0.000431,0.000000
66600,0.0324,0.013523,0.002678,0.000431,0.001175
66700,0.0324,0.013523,0.002678,0.000431,0.001175
66800,0.0324,0.013523,0.002678,0.000431,0.000000
66900,0.0324,0.013523,0.002678,0.000431,0.001175
67000,0.0324,0.013523,0.002678,0.000431,0.001175
67100,0.0324,0.013523,0.002678,0.000431,0.000000
67200,0.0324,0.013523,0.002678,0.000431,0.002351
67300,0.0324,0.013523,0.002678,0.000431,0.000000
67400,0.0324,0.013523,0.002678,0.000431,0.000000
67500,0.0324,0.013523,0.002678,0.000431,0.001175
67600,0.0324,0.013523,0.002678,0.000431,0.000000
67700,0.0324,0.013523,0.002678,0.000431,0.000000
67800,0.0324,0.013523,0.002678,0.000431,0.000000
67900,0.0324,0.013523,0.002678,0.000431,0.000000
68000,0.0324,0.013523,0.002678,0.000431,0.000000
68100,0.0324,0.013523,0.002678,0.000431,0.000000
68200,0.0324,0.013523,0.002678,0.000431,0.000000
68300,0.0324,0.013523,0.002678,0.000431,0.000000
68400,0.0324,0.013523,0.002678,0.000431,0.000000
68500,0.0324,0.013523,0.002678,0.000431,0.000000
68600,0.0324,0.013523,0.002678,0.000431,0.000000
68700,0.0324,0.013523,0.002678,0.000431,0.000000
68800,0.0324,0.013523,0.002678,0.000431,0.000000
68900,0.0324,0.013523,0.002678,0.000431,0.000000
69000,0.0324,0.013523,0.002678,0.000431,0.000000
69100,0.0324,0.013523,0.002678,0.000431,0.000000
69200,0.0324,0.013523,0.002678,0.000431,0.000000
69300,0.0324,0.013523,0.002678,0.000431,0.001175
69400,0.0324,0.013523,0.002678,0.000431,0.000000
69500,0.0324,0.013523,0.002678,0.000431,0.001175
69600,0.0324,0.013523,0.002678,0.000431,0.001175
69700,0.0324,0.013523,0.002678,0.000431,0.000000
69800,0.0324,0.013523,0.002678,0.000431,0.001175
69900,0.0324,0.013523,0.002678,0.000431,0.001175
70000,0.0324,0.013523,0.002678,0.000431,0.000000
70100,0.0324,0.013523,0.002678,0.000431,0.002351
70200,0.0324,0.013523,0.002678,0.000431,0.000000
70300,0.0324,0.013523,0.002678,0.000431,0.000000
70400,0.0324,0.013523,0.002678,0.000431,0.001175
70500,0.0324,0.013523,0.002678,0.000431,0.000000
70600,0.0324,0.013523,0.002678,0.000431,0.000000
70700,0.0324,0.013523,0.002678,0.000431,0.000000
70800,0.0324,0.013523,0.002678,0.000431,0.000000
70900,0.0324,0.013523,0.002678,0.000431,0.000000
71000,0.0324,0.013523,0.002678,0.000431,0.000000
71100,0.0324,0.013523,0.002678,0.000431,0.000000
71200,0.0324,0.013523,0.002678,0.000431,0.000000
71300,0.0324,0.013523,0.002678,0.000431,0.000000
71400,0.0324,0.013523,0.002678,0.000431,0.000000
71500,0.0324,0.013523,0.002678,0.000431,0.000000
71600,0.0324,0.013523,0.002678,0.000431,0.000000
71700,0.0324,0.013523,0.002678,0.000431,0.000000
71800,0.0324,0.013523,0.002678,0.000431,0.000000
71900,0.0324,0.013523,0.002678,0.000431,0.000000
72000,0.0324,0.013523,0.002678,0.000431,0.000000
72100,0.0324,0.013523,0.002678,0.000431,0.000000
72200,0.0324,0.013523,0.002678,0.000431,0.001175
72300,0.0324,0.013523,0.002678,0.000431,0.000000
72400,0.0324,0.013523,0.002678,0.000431,0.001175
72500,0.0324,0.013523,0.002678,0.000431,0.001175
72600,0.0324,0.013523,0.002678,0.000431,0.000000
72700,0.0324,0.013523,0.002678,0.000431,0.002351
72800,0.0324,0.013523,0.002678,0.000431,0.000000
72900,0.0324,0.013523,0.002678,0.000431,0.001175
73000,0.0324,0.013523,0.002678,0.000431,0.001175
73100,0.0324,0.013523,0.002678,0.000431,0.000000
73200,0.0324,0.013523,0.002678,0.000431,0.000000
73300,0.0324,0.013523,0.002678,0.000431,0.001175
73400,0.0324,0.013523,0.002678,0.000431,0.000000
73500,0.0324,0.013523,0.002678,0.000431,0.000000
73600,0.0324,0.013523,0.002678,0.000431,0.000000
73700,0.0324,0.013523,0.002678,0.000431,0.000000
73800,0.0324,0.013523,0.002678,0.000431,0.000000
73900,0.0324,0.013523,0.002678,0.000431,0.000000
74000,0.0324,0.013523,0.002678,0.000431,0.000000
74100,0.0324,0.013523,0.002678,0.000431,0.000000
74200,0.0324,0.013523,0.002678,0.000431,0.000000
74300,0.0324,0.013523,0.002678,0.000431,0.000000
74400,0.0324,0.013523,0.002678,0.000431,0.000000
74500,0.0324,0.013523,0.002678,0.000431,0.000000
74600,0.0324,0.013523,0.002678,0.000431,0.000000
74700,0.0324,0.013523,0.002678,0.000431,0.000000
74800,0.0324,0.013523,0.002678,0.000431,0.000000
74900,0.0324,0.013523,0.002678,0.000431,0.000000
75000,0.0324,0.013523,0.002678,0.000431,0.000000
75100,0.0324,0.013523,0.002678,0.000431,0.001175
75200,0.0324,0.013523,0.002678,0.000431,0.000000
75300,0.0324,0.013523,0.002678,0.000431,0.001175
75400,0.0324,0.013523,0.002678,0.000431,0.001175
75500,0.0324,0.013523,0.002678,0.000431,0.000000
75600,0.0324,0.013523,0.002678,0.000431,0.002351
75700,0.0324,0.013523,0.002678,0.000431,0.000000
75800,0.0324,0.013523,0.002678,0.000431,0.001175
75900,0.0324,0.013523,0.002678,0.000431,0.001175
76000,0.0324,0.013523,0.002678,0.000431,0.000000
76100,0.0324,0.013523,0.002678,0.000431,0.000000
76200,0.0324,0.013523,0.002678,0.000431,0.001175
76300,0.0324,0.013523,0.002678,0.000431,0.000000
76400,0.0324,0.013523,0.002678,0.000431,0.000000
76500,0.0324,0.013523,0.002678,0.000431,0.000000
76600,0.0324,0.013523,0.002678,0.000431,0.000000
76700,0.0324,0.013523,0.002678,0.000431,0.000000
76800,0.0324,0.013523,0.002678,0.000431,0.000000
76900,0.0324,0.013523,0.002678,0.000431,0.000000
77000,0.0324,0.013523,0.002678,0.000431,0.000000
77100,0.0324,0.013523,0.002678,0.000431,0.000000
77200,0.0324,0.013523,0.002678,0.000431,0.000000
77300,0.0324,0.013523,0.002678,0.000431,0.000000
77400,0.0324,0.013523,0.002678,0.000431,0.000000
77500,0.0324,0.013523,0.002678,0.000431,0.000000
77600,0.0324,0.013523,0.002678,0.000431,0.000000
77700,0.0324,0.013523,0.002678,0.000431,0.000000
77800,0.0324,0.013523,0.002678,0.000431,0.000000
77900,0.0324,0.013523,0.002678,0.000431,0.000000
78000,0.0324,0.013523,0.002678,0.000431,0.001175
78100,0.0324,0.013523,0.002678,0.000431,0.000000
78200,0.0324,0.013523,0.002678,0.000431,0.001175
78300,0.0324,0.013523,0.002678,0.000431,0.001175
78400,0.0324,0.013523,0.002678,0.000431,0.000000
78500,0.0324,0.013523,0.002678,0.000431,0.002351
78600,0.0324,0.013523,0.002678,0.000431,0.000000
78700,0.0324,0.013523,0.002678,0.000431,0.001175
78800,0.0324,0.013523,0.002678,0.000431,0.001175
78900,0.0324,0.013523,0.002678,0.000431,0.000000
79000,0.0324,0.013523,0.002678,0.000431,0.000000
79100,0.0324,0.013523,0.002678,0.000431,0.001175
79200,0.0324,0.013523,0.002678,0.000431,0.000000
79300,0.0324,0.013523,0.002678,0.000431,0.000000
79400,0.0324,0.013523,0.002678,0.000431,0.000000
79500,0.0324,0.013523,0.002678,0.000431,0.000000
79600,0.0324,0.013523,0.002678,0.000431,0.000000
79700,0.0324,0.013523,0.002678,0.000431,0.000000
79800,0.0324,0.013523,0.002678,0.000431,0.000000
79900,0.0324,0.013523,0.002678,0.000431,0.000000
80000,0.0324,0.013523,0.002678,0.000431,0.000000
80100,0.0324,0.013523,0.002678,0.000431,0.000000
80200,0.0324,0.013523,0.002678,0.000431,0.000000
80300,0.0324,0.013523,0.002678,0.000431,0.000000
80400,0.0324,0.013523,0.002678,0.000431,0.000000
80500,0.0324,0.013523,0.002678,0.000431,0.000000
80600,0.0324,0.013523,0.002678,0.000431,0.000000
80700,0.0324,0.013523,0.002678,0.000431,0.000000
80800,0.0324,0.013523,0.002678,0.000431,0.000000
80900,0.0324,0.013523,0.002678,0.000431,0.001175
81000,0.0324,0.013523,0.002678,0.000431,0.000000
81100,0.0324,0.013523,0.002678,0.000431,0.001175
81200,0.0324,0.013523,0.002678,0.000431,0.001175
81300,0.0324,0.013523,0.002678,0.000431,0.001175
81400,0.0324,0.013523,0.002678,0.000431,0.001175
81500,0.0324,0.013523,0.002678,0.000431,0.000000
81600,0.0324,0.013523,0.002678,0.000431,0.001175
81700,0.0324,0.013523,0.002678,0.000431,0.001175
81800,0.0324,0.013523,0.002678,0.000431,0.000000
81900,0.0324,0.013523,0.002678,0.000431,0.001175
82000,0.0324,0.013523,0.002678,0.000431,0.000000
82100,0.0324,0.013523,0.002678,0.000431,0.000000
82200,0.0324,0.013523,0.002678,0.000431,0.000000
82300,0.0324,0.013523,0.002678,0.000431,0.000000
82400,0.0324,0.013523,0.002678,0.000431,0.000000
82500,0.0324,0.013523,0.002678,0.000431,0.000000
82600,0.0324,0.013523,0.002678,0.000431,0.000000
82700,0.0324,0.013523,0.002678,0.000431,0.000000
82800,0.0324,0.013523,0.002678,0.000431,0.000000
82900,0.0324,0.013523,0.002678,0.000431,0.000000
83000,0.0324,0.013523,0.002678,0.000431,0.000000
83100,0.0324,0.013523,0.002678,0.000431,0.000000
83200,0.0324,0.013523,0.002678,0.000431,0.000000
83300,0.0324,0.013523,0.002678,0.000431,0.000000
83400,0.0324,0.013523,0.002678,0.000431,0.000000
83500,0.0324,0.013523,0.002678,0.000431,0.000000
83600,0.0324,0.013523,0.002678,0.000431,0.002351
83700,0.0324,0.013523,0.002678,0.000431,0.000000
83800,0.0324,0.013523,0.002678,0.000431,0.002351
83900,0.0324,0.013523,0.002678,0.000431,0.001175
84000,0.0324,0.013523,0.002678,0.000431,0.000000
