Cycle,Area(mm^2),PeakDynamic(W),SubthresholdLeakage(W),GateLeakage(W),RunTimeDynamic(W)
3000000,0.0324,0.013523,0.002678,0.000431,0.007757
3001000,0.0324,0.013523,0.002678,0.000431,0.006582
3002000,0.0324,0.013523,0.002678,0.000431,0.007169
3003000,0.0324,0.013523,0.002678,0.000431,0.007757
3004000,0.0324,0.013523,0.002678,0.000431,0.006934
3005000,0.0324,0.013523,0.002678,0.000431,0.006817
3006000,0.0324,0.013523,0.002678,0.000431,0.007874
3007000,0.0324,0.013523,0.002678,0.000431,0.007404
3008000,0.0324,0.013523,0.002678,0.000431,0.006699
3009000,0.0324,0.013523,0.002678,0.000431,0.007169
3010000,0.0324,0.013523,0.002678,0.000431,0.006934
3011000,0.0324,0.013523,0.002678,0.000431,0.006347
3012000,0.0324,0.013523,0.002678,0.000431,0.005524
3013000,0.0324,0.013523,0.002678,0.000431,0.007992
3014000,0.0324,0.013523,0.002678,0.000431,0.005641
3015000,0.0324,0.013523,0.002678,0.000431,0.005524
3016000,0.0324,0.013523,0.002678,0.000431,0.007287
3017000,0.0324,0.013523,0.002678,0.000431,0.006229
3018000,0.0324,0.013523,0.002678,0.000431,0.005641
3019000,0.0324,0.013523,0.002678,0.000431,0.007639
3020000,0.0324,0.013523,0.002678,0.000431,0.006229
3021000,0.0324,0.013523,0.002678,0.000431,0.005994
3022000,0.0324,0.013523,0.002678,0.000431,0.006464
3023000,0.0324,0.013523,0.002678,0.000431,0.006817
3024000,0.0324,0.013523,0.002678,0.000431,0.005876
3025000,0.0324,0.013523,0.002678,0.000431,0.006582
3026000,0.0324,0.013523,0.002678,0.000431,0.007052
3027000,0.0324,0.013523,0.002678,0.000431,0.005994
3028000,0.0324,0.013523,0.002678,0.000431,0.006699
3029000,0.0324,0.013523,0.002678,0.000431,0.006582
3030000,0.0324,0.013523,0.002678,0.000431,0.006111
3031000,0.0324,0.013523,0.002678,0.000431,0.006699
3032000,0.0324,0.013523,0.002678,0.000431,0.006817
3033000,0.0324,0.013523,0.002678,0.000431,0.006464
3034000,0.0324,0.013523,0.002678,0.000431,0.006229
3035000,0.0324,0.013523,0.002678,0.000431,0.005876
3036000,0.0324,0.013523,0.002678,0.000431,0.006582
3037000,0.0324,0.013523,0.002678,0.000431,0.005759
3038000,0.0324,0.013523,0.002678,0.000431,0.006464
3039000,0.0324,0.013523,0.002678,0.000431,0.006817
3040000,0.0324,0.013523,0.002678,0.000431,0.006582
3041000,0.0324,0.013523,0.002678,0.000431,0.006464
3042000,0.0324,0.013523,0.002678,0.000431,0.006229
3043000,0.0324,0.013523,0.002678,0.000431,0.006699
3044000,0.0324,0.013523,0.002678,0.000431,0.006699
3045000,0.0324,0.013523,0.002678,0.000431,0.005994
3046000,0.0324,0.013523,0.002678,0.000431,0.007639
3047000,0.0324,0.013523,0.002678,0.000431,0.005876
3048000,0.0324,0.013523,0.002678,0.000431,0.005876
3049000,0.0324,0.013523,0.002678,0.000431,0.007052
3050000,0.0324,0.013523,0.002678,0.000431,0.005876
3051000,0.0324,0.013523,0.002678,0.000431,0.005641
3052000,0.0324,0.013523,0.002678,0.000431,0.006699
3053000,0.0324,0.013523,0.002678,0.000431,0.005759
3054000,0.0324,0.013523,0.002678,0.000431,0.005759
3055000,0.0324,0.013523,0.002678,0.000431,0.006582
3056000,0.0324,0.013523,0.002678,0.000431,0.006699
3057000,0.0324,0.013523,0.002678,0.000431,0.005876
3058000,0.0324,0.013523,0.002678,0.000431,0.006111
3059000,0.0324,0.013523,0.002678,0.000431,0.007287
3060000,0.0324,0.013523,0.002678,0.000431,0.005641
3061000,0.0324,0.013523,0.002678,0.000431,0.005876
3062000,0.0324,0.013523,0.002678,0.000431,0.007052
3063000,0.0324,0.013523,0.002678,0.000431,0.005876
3064000,0.0324,0.013523,0.002678,0.000431,0.005876
3065000,0.0324,0.013523,0.002678,0.000431,0.007052
3066000,0.0324,0.013523,0.002678,0.000431,0.005054
3067000,0.0324,0.013523,0.002678,0.000431,0.004936
3068000,0.0324,0.013523,0.002678,0.000431,0.005171
3069000,0.0324,0.013523,0.002678,0.000431,0.005994
3070000,0.0324,0.013523,0.002678,0.000431,0.004819
3071000,0.0324,0.013523,0.002678,0.000431,0.005171
3072000,0.0324,0.013523,0.002678,0.000431,0.006111
3073000,0.0324,0.013523,0.002678,0.000431,0.004466
3074000,0.0324,0.013523,0.002678,0.000431,0.005524
3075000,0.0324,0.013523,0.002678,0.000431,0.005524
3076000,0.0324,0.013523,0.002678,0.000431,0.005289
3077000,0.0324,0.013523,0.002678,0.000431,0.005054
3078000,0.0324,0.013523,0.002678,0.000431,0.005876
3079000,0.0324,0.013523,0.002678,0.000431,0.005406
3080000,0.0324,0.013523,0.002678,0.000431,0.004819
3081000,0.0324,0.013523,0.002678,0.000431,0.005876
3082000,0.0324,0.013523,0.002678,0.000431,0.005641
3083000,0.0324,0.013523,0.002678,0.000431,0.004701
3084000,0.0324,0.013523,0.002678,0.000431,0.005524
3085000,0.0324,0.013523,0.002678,0.000431,0.005524
3086000,0.0324,0.013523,0.002678,0.000431,0.005171
3087000,0.0324,0.013523,0.002678,0.000431,0.004701
3088000,0.0324,0.013523,0.002678,0.000431,0.005759
3089000,0.0324,0.013523,0.002678,0.000431,0.005524
3090000,0.0324,0.013523,0.002678,0.000431,0.004466
3091000,0.0324,0.013523,0.002678,0.000431,0.005054
3092000,0.0324,0.013523,0.002678,0.000431,0.005406
3093000,0.0324,0.013523,0.002678,0.000431,0.005524
3094000,0.0324,0.013523,0.002678,0.000431,0.005054
3095000,0.0324,0.013523,0.002678,0.000431,0.005171
3096000,0.0324,0.013523,0.002678,0.000431,0.005641
3097000,0.0324,0.013523,0.002678,0.000431,0.005054
3098000,0.0324,0.013523,0.002678,0.000431,0.005759
3099000,0.0324,0.013523,0.002678,0.000431,0.005054
3100000,0.0324,0.013523,0.002678,0.000431,0.005524
3101000,0.0324,0.013523,0.002678,0.000431,0.005054
3102000,0.0324,0.013523,0.002678,0.000431,0.005759
3103000,0.0324,0.013523,0.002678,0.000431,0.005406
3104000,0.0324,0.013523,0.002678,0.000431,0.005406
3105000,0.0324,0.013523,0.002678,0.000431,0.005406
3106000,0.0324,0.013523,0.002678,0.000431,0.005054
3107000,0.0324,0.013523,0.002678,0.000431,0.005876
3108000,0.0324,0.013523,0.002678,0.000431,0.004936
3109000,0.0324,0.013523,0.002678,0.000431,0.005641
3110000,0.0324,0.013523,0.002678,0.000431,0.005171
3111000,0.0324,0.013523,0.002678,0.000431,0.005524
3112000,0.0324,0.013523,0.002678,0.000431,0.005641
3113000,0.0324,0.013523,0.002678,0.000431,0.005171
3114000,0.0324,0.013523,0.002678,0.000431,0.005524
3115000,0.0324,0.013523,0.002678,0.000431,0.005289
3116000,0.0324,0.013523,0.002678,0.000431,0.005524
3117000,0.0324,0.013523,0.002678,0.000431,0.005406
3118000,0.0324,0.013523,0.002678,0.000431,0.005171
3119000,0.0324,0.013523,0.002678,0.000431,0.005641
3120000,0.0324,0.013523,0.002678,0.000431,0.005289
3121000,0.0324,0.013523,0.002678,0.000431,0.005289
3122000,0.0324,0.013523,0.002678,0.000431,0.005641
3123000,0.0324,0.013523,0.002678,0.000431,0.005054
3124000,0.0324,0.013523,0.002678,0.000431,0.005524
3125000,0.0324,0.013523,0.002678,0.000431,0.005641
3126000,0.0324,0.013523,0.002678,0.000431,0.005524
3127000,0.0324,0.013523,0.002678,0.000431,0.004819
3128000,0.0324,0.013523,0.002678,0.000431,0.005171
3129000,0.0324,0.013523,0.002678,0.000431,0.005524
3130000,0.0324,0.013523,0.002678,0.000431,0.005406
3131000,0.0324,0.013523,0.002678,0.000431,0.005406
3132000,0.0324,0.013523,0.002678,0.000431,0.005289
3133000,0.0324,0.013523,0.002678,0.000431,0.005171
3134000,0.0324,0.013523,0.002678,0.000431,0.005054
3135000,0.0324,0.013523,0.002678,0.000431,0.005406
3136000,0.0324,0.013523,0.002678,0.000431,0.005171
3137000,0.0324,0.013523,0.002678,0.000431,0.005289
3138000,0.0324,0.013523,0.002678,0.000431,0.005289
3139000,0.0324,0.013523,0.002678,0.000431,0.005171
3140000,0.0324,0.013523,0.002678,0.000431,0.005641
3141000,0.0324,0.013523,0.002678,0.000431,0.005524
3142000,0.0324,0.013523,0.002678,0.000431,0.005054
3143000,0.0324,0.013523,0.002678,0.000431,0.005171
3144000,0.0324,0.013523,0.002678,0.000431,0.005406
3145000,0.0324,0.013523,0.002678,0.000431,0.004349
3146000,0.0324,0.013523,0.002678,0.000431,0.005641
3147000,0.0324,0.013523,0.002678,0.000431,0.005406
3148000,0.0324,0.013523,0.002678,0.000431,0.005289
3149000,0.0324,0.013523,0.002678,0.000431,0.005171
3150000,0.0324,0.013523,0.002678,0.000431,0.005759
3151000,0.0324,0.013523,0.002678,0.000431,0.005289
3152000,0.0324,0.013523,0.002678,0.000431,0.005406
3153000,0.0324,0.013523,0.002678,0.000431,0.005524
3154000,0.0324,0.013523,0.002678,0.000431,0.005759
3155000,0.0324,0.013523,0.002678,0.000431,0.005289
3156000,0.0324,0.013523,0.002678,0.000431,0.005171
3157000,0.0324,0.013523,0.002678,0.000431,0.005641
3158000,0.0324,0.013523,0.002678,0.000431,0.004819
3159000,0.0324,0.013523,0.002678,0.000431,0.005524
3160000,0.0324,0.013523,0.002678,0.000431,0.005876
3161000,0.0324,0.013523,0.002678,0.000431,0.004936
3162000,0.0324,0.013523,0.002678,0.000431,0.005289
3163000,0.0324,0.013523,0.002678,0.000431,0.005289
3164000,0.0324,0.013523,0.002678,0.000431,0.005406
3165000,0.0324,0.013523,0.002678,0.000431,0.004819
3166000,0.0324,0.013523,0.002678,0.000431,0.005876
3167000,0.0324,0.013523,0.002678,0.000431,0.005406
3168000,0.0324,0.013523,0.002678,0.000431,0.005171
3169000,0.0324,0.013523,0.002678,0.000431,0.005524
3170000,0.0324,0.013523,0.002678,0.000431,0.005289
3171000,0.0324,0.013523,0.002678,0.000431,0.005289
3172000,0.0324,0.013523,0.002678,0.000431,0.005524
3173000,0.0324,0.013523,0.002678,0.000431,0.005524
3174000,0.0324,0.013523,0.002678,0.000431,0.005876
3175000,0.0324,0.013523,0.002678,0.000431,0.005171
3176000,0.0324,0.013523,0.002678,0.000431,0.004701
3177000,0.0324,0.013523,0.002678,0.000431,0.004349
3178000,0.0324,0.013523,0.002678,0.000431,0.004819
3179000,0.0324,0.013523,0.002678,0.000431,0.004701
3180000,0.0324,0.013523,0.002678,0.000431,0.004113
3181000,0.0324,0.013523,0.002678,0.000431,0.004701
3182000,0.0324,0.013523,0.002678,0.000431,0.004701
3183000,0.0324,0.013523,0.002678,0.000431,0.004349
3184000,0.0324,0.013523,0.002678,0.000431,0.004819
3185000,0.0324,0.013523,0.002678,0.000431,0.004584
3186000,0.0324,0.013523,0.002678,0.000431,0.004231
3187000,0.0324,0.013523,0.002678,0.000431,0.004701
3188000,0.0324,0.013523,0.002678,0.000431,0.005171
3189000,0.0324,0.013523,0.002678,0.000431,0.004113
3190000,0.0324,0.013523,0.002678,0.000431,0.003643
3191000,0.0324,0.013523,0.002678,0.000431,0.004349
3192000,0.0324,0.013523,0.002678,0.000431,0.003996
3193000,0.0324,0.013523,0.002678,0.000431,0.003761
3194000,0.0324,0.013523,0.002678,0.000431,0.003643
3195000,0.0324,0.013523,0.002678,0.000431,0.003878
3196000,0.0324,0.013523,0.002678,0.000431,0.003408
3197000,0.0324,0.013523,0.002678,0.000431,0.004349
3198000,0.0324,0.013523,0.002678,0.000431,0.004231
3199000,0.0324,0.013523,0.002678,0.000431,0.003878
3200000,0.0324,0.013523,0.002678,0.000431,0.003526
3201000,0.0324,0.013523,0.002678,0.000431,0.004349
3202000,0.0324,0.013523,0.002678,0.000431,0.003878
3203000,0.0324,0.013523,0.002678,0.000431,0.003408
3204000,0.0324,0.013523,0.002678,0.000431,0.003996
3205000,0.0324,0.013523,0.002678,0.000431,0.003761
3206000,0.0324,0.013523,0.002678,0.000431,0.003878
3207000,0.0324,0.013523,0.002678,0.000431,0.003996
3208000,0.0324,0.013523,0.002678,0.000431,0.004466
3209000,0.0324,0.013523,0.002678,0.000431,0.003526
3210000,0.0324,0.013523,0.002678,0.000431,0.003643
3211000,0.0324,0.013523,0.002678,0.000431,0.004231
3212000,0.0324,0.013523,0.002678,0.000431,0.004113
3213000,0.0324,0.013523,0.002678,0.000431,0.003408
3214000,0.0324,0.013523,0.002678,0.000431,0.003878
3215000,0.0324,0.013523,0.002678,0.000431,0.004584
3216000,0.0324,0.013523,0.002678,0.000431,0.003643
3217000,0.0324,0.013523,0.002678,0.000431,0.003761
3218000,0.0324,0.013523,0.002678,0.000431,0.003408
3219000,0.0324,0.013523,0.002678,0.000431,0.003996
3220000,0.0324,0.013523,0.002678,0.000431,0.004113
3221000,0.0324,0.013523,0.002678,0.000431,0.003878
3222000,0.0324,0.013523,0.002678,0.000431,0.003761
3223000,0.0324,0.013523,0.002678,0.000431,0.003996
3224000,0.0324,0.013523,0.002678,0.000431,0.003878
3225000,0.0324,0.013523,0.002678,0.000431,0.004349
3226000,0.0324,0.013523,0.002678,0.000431,0.004113
3227000,0.0324,0.013523,0.002678,0.000431,0.003996
3228000,0.0324,0.013523,0.002678,0.000431,0.004113
3229000,0.0324,0.013523,0.002678,0.000431,0.003643
3230000,0.0324,0.013523,0.002678,0.000431,0.003878
3231000,0.0324,0.013523,0.002678,0.000431,0.003408
3232000,0.0324,0.013523,0.002678,0.000431,0.004113
3233000,0.0324,0.013523,0.002678,0.000431,0.004113
3234000,0.0324,0.013523,0.002678,0.000431,0.003761
3235000,0.0324,0.013523,0.002678,0.000431,0.003761
3236000,0.0324,0.013523,0.002678,0.000431,0.003996
3237000,0.0324,0.013523,0.002678,0.000431,0.004113
3238000,0.0324,0.013523,0.002678,0.000431,0.003878
3239000,0.0324,0.013523,0.002678,0.000431,0.004231
3240000,0.0324,0.013523,0.002678,0.000431,0.004113
3241000,0.0324,0.013523,0.002678,0.000431,0.003526
3242000,0.0324,0.013523,0.002678,0.000431,0.003996
3243000,0.0324,0.013523,0.002678,0.000431,0.003878
3244000,0.0324,0.013523,0.002678,0.000431,0.003878
3245000,0.0324,0.013523,0.002678,0.000431,0.003878
3246000,0.0324,0.013523,0.002678,0.000431,0.004349
3247000,0.0324,0.013523,0.002678,0.000431,0.003996
3248000,0.0324,0.013523,0.002678,0.000431,0.003526
3249000,0.0324,0.013523,0.002678,0.000431,0.004584
3250000,0.0324,0.013523,0.002678,0.000431,0.004113
3251000,0.0324,0.013523,0.002678,0.000431,0.003643
3252000,0.0324,0.013523,0.002678,0.000431,0.003996
3253000,0.0324,0.013523,0.002678,0.000431,0.003761
3254000,0.0324,0.013523,0.002678,0.000431,0.003408
3255000,0.0324,0.013523,0.002678,0.000431,0.003996
3256000,0.0324,0.013523,0.002678,0.000431,0.004349
3257000,0.0324,0.013523,0.002678,0.000431,0.003878
3258000,0.0324,0.013523,0.002678,0.000431,0.003761
3259000,0.0324,0.013523,0.002678,0.000431,0.003996
3260000,0.0324,0.013523,0.002678,0.000431,0.003643
3261000,0.0324,0.013523,0.002678,0.000431,0.003526
3262000,0.0324,0.013523,0.002678,0.000431,0.004113
3263000,0.0324,0.013523,0.002678,0.000431,0.003878
3264000,0.0324,0.013523,0.002678,0.000431,0.003878
3265000,0.0324,0.013523,0.002678,0.000431,0.003996
3266000,0.0324,0.013523,0.002678,0.000431,0.004231
3267000,0.0324,0.013523,0.002678,0.000431,0.003761
3268000,0.0324,0.013523,0.002678,0.000431,0.003761
3269000,0.0324,0.013523,0.002678,0.000431,0.004231
3270000,0.0324,0.013523,0.002678,0.000431,0.003996
3271000,0.0324,0.013523,0.002678,0.000431,0.003996
3272000,0.0324,0.013523,0.002678,0.000431,0.003996
3273000,0.0324,0.013523,0.002678,0.000431,0.003878
3274000,0.0324,0.013523,0.002678,0.000431,0.004113
3275000,0.0324,0.013523,0.002678,0.000431,0.003643
3276000,0.0324,0.013523,0.002678,0.000431,0.004113
3277000,0.0324,0.013523,0.002678,0.000431,0.003996
3278000,0.0324,0.013523,0.002678,0.000431,0.003761
3279000,0.0324,0.013523,0.002678,0.000431,0.003878
3280000,0.0324,0.013523,0.002678,0.000431,0.003761
3281000,0.0324,0.013523,0.002678,0.000431,0.003643
3282000,0.0324,0.013523,0.002678,0.000431,0.003643
3283000,0.0324,0.013523,0.002678,0.000431,0.003996
3284000,0.0324,0.013523,0.002678,0.000431,0.003996
3285000,0.0324,0.013523,0.002678,0.000431,0.004231
3286000,0.0324,0.013523,0.002678,0.000431,0.003878
3287000,0.0324,0.013523,0.002678,0.000431,0.003878
3288000,0.0324,0.013523,0.002678,0.000431,0.003526
3289000,0.0324,0.013523,0.002678,0.000431,0.003526
3290000,0.0324,0.013523,0.002678,0.000431,0.003996
3291000,0.0324,0.013523,0.002678,0.000431,0.003996
3292000,0.0324,0.013523,0.002678,0.000431,0.003408
3293000,0.0324,0.013523,0.002678,0.000431,0.004113
3294000,0.0324,0.013523,0.002678,0.000431,0.003643
3295000,0.0324,0.013523,0.002678,0.000431,0.003878
3296000,0.0324,0.013523,0.002678,0.000431,0.003878
3297000,0.0324,0.013523,0.002678,0.000431,0.004113
3298000,0.0324,0.013523,0.002678,0.000431,0.004113
3299000,0.0324,0.013523,0.002678,0.000431,0.003643
3300000,0.0324,0.013523,0.002678,0.000431,0.003996
3301000,0.0324,0.013523,0.002678,0.000431,0.003996
3302000,0.0324,0.013523,0.002678,0.000431,0.003996
3303000,0.0324,0.013523,0.002678,0.000431,0.003643
3304000,0.0324,0.013523,0.002678,0.000431,0.003761
3305000,0.0324,0.013523,0.002678,0.000431,0.003878
3306000,0.0324,0.013523,0.002678,0.000431,0.003408
3307000,0.0324,0.013523,0.002678,0.000431,0.004349
3308000,0.0324,0.013523,0.002678,0.000431,0.003526
3309000,0.0324,0.013523,0.002678,0.000431,0.004349
3310000,0.0324,0.013523,0.002678,0.000431,0.003643
3311000,0.0324,0.013523,0.002678,0.000431,0.003761
3312000,0.0324,0.013523,0.002678,0.000431,0.003996
3313000,0.0324,0.013523,0.002678,0.000431,0.003878
3314000,0.0324,0.013523,0.002678,0.000431,0.004349
3315000,0.0324,0.013523,0.002678,0.000431,0.003996
3316000,0.0324,0.013523,0.002678,0.000431,0.003878
3317000,0.0324,0.013523,0.002678,0.000431,0.003526
3318000,0.0324,0.013523,0.002678,0.000431,0.004231
3319000,0.0324,0.013523,0.002678,0.000431,0.003996
3320000,0.0324,0.013523,0.002678,0.000431,0.003878
3321000,0.0324,0.013523,0.002678,0.000431,0.004466
3322000,0.0324,0.013523,0.002678,0.000431,0.003643
3323000,0.0324,0.013523,0.002678,0.000431,0.003761
3324000,0.0324,0.013523,0.002678,0.000431,0.004231
3325000,0.0324,0.013523,0.002678,0.000431,0.003878
3326000,0.0324,0.013523,0.002678,0.000431,0.003878
3327000,0.0324,0.013523,0.002678,0.000431,0.004113
3328000,0.0324,0.013523,0.002678,0.000431,0.004113
3329000,0.0324,0.013523,0.002678,0.000431,0.003408
3330000,0.0324,0.013523,0.002678,0.000431,0.003878
3331000,0.0324,0.013523,0.002678,0.000431,0.004466
3332000,0.0324,0.013523,0.002678,0.000431,0.003761
3333000,0.0324,0.013523,0.002678,0.000431,0.003526
3334000,0.0324,0.013523,0.002678,0.000431,0.003996
3335000,0.0324,0.013523,0.002678,0.000431,0.003761
3336000,0.0324,0.013523,0.002678,0.000431,0.003878
3337000,0.0324,0.013523,0.002678,0.000431,0.003996
3338000,0.0324,0.013523,0.002678,0.000431,0.004349
3339000,0.0324,0.013523,0.002678,0.000431,0.003526
3340000,0.0324,0.013523,0.002678,0.000431,0.003526
3341000,0.0324,0.013523,0.002678,0.000431,0.004584
3342000,0.0324,0.013523,0.002678,0.000431,0.003643
3343000,0.0324,0.013523,0.002678,0.000431,0.003643
3344000,0.0324,0.013523,0.002678,0.000431,0.004936
3345000,0.0324,0.013523,0.002678,0.000431,0.003526
3346000,0.0324,0.013523,0.002678,0.000431,0.003526
3347000,0.0324,0.013523,0.002678,0.000431,0.004349
3348000,0.0324,0.013523,0.002678,0.000431,0.003996
3349000,0.0324,0.013523,0.002678,0.000431,0.003408
3350000,0.0324,0.013523,0.002678,0.000431,0.004231
3351000,0.0324,0.013523,0.002678,0.000431,0.004113
3352000,0.0324,0.013523,0.002678,0.000431,0.003643
3353000,0.0324,0.013523,0.002678,0.000431,0.004113
3354000,0.0324,0.013523,0.002678,0.000431,0.003878
3355000,0.0324,0.013523,0.002678,0.000431,0.003643
3356000,0.0324,0.013523,0.002678,0.000431,0.003878
3357000,0.0324,0.013523,0.002678,0.000431,0.004231
3358000,0.0324,0.013523,0.002678,0.000431,0.003878
3359000,0.0324,0.013523,0.002678,0.000431,0.003643
3360000,0.0324,0.013523,0.002678,0.000431,0.003878
3361000,0.0324,0.013523,0.002678,0.000431,0.004349
3362000,0.0324,0.013523,0.002678,0.000431,0.003878
3363000,0.0324,0.013523,0.002678,0.000431,0.004231
3364000,0.0324,0.013523,0.002678,0.000431,0.003643
3365000,0.0324,0.013523,0.002678,0.000431,0.003761
3366000,0.0324,0.013523,0.002678,0.000431,0.003996
3367000,0.0324,0.013523,0.002678,0.000431,0.004231
3368000,0.0324,0.013523,0.002678,0.000431,0.003878
3369000,0.0324,0.013523,0.002678,0.000431,0.003526
3370000,0.0324,0.013523,0.002678,0.000431,0.004113
3371000,0.0324,0.013523,0.002678,0.000431,0.003643
3372000,0.0324,0.013523,0.002678,0.000431,0.003291
3373000,0.0324,0.013523,0.002678,0.000431,0.004349
3374000,0.0324,0.013523,0.002678,0.000431,0.003643
3375000,0.0324,0.013523,0.002678,0.000431,0.003526
3376000,0.0324,0.013523,0.002678,0.000431,0.003996
3377000,0.0324,0.013523,0.002678,0.000431,0.003878
3378000,0.0324,0.013523,0.002678,0.000431,0.003761
3379000,0.0324,0.013523,0.002678,0.000431,0.003878
3380000,0.0324,0.013523,0.002678,0.000431,0.004113
3381000,0.0324,0.013523,0.002678,0.000431,0.003761
3382000,0.0324,0.013523,0.002678,0.000431,0.003173
3383000,0.0324,0.013523,0.002678,0.000431,0.004231
3384000,0.0324,0.013523,0.002678,0.000431,0.003996
3385000,0.0324,0.013523,0.002678,0.000431,0.003408
3386000,0.0324,0.013523,0.002678,0.000431,0.004113
3387000,0.0324,0.013523,0.002678,0.000431,0.003996
3388000,0.0324,0.013523,0.002678,0.000431,0.003643
3389000,0.0324,0.013523,0.002678,0.000431,0.003878
3390000,0.0324,0.013523,0.002678,0.000431,0.004113
3391000,0.0324,0.013523,0.002678,0.000431,0.003878
3392000,0.0324,0.013523,0.002678,0.000431,0.003761
3393000,0.0324,0.013523,0.002678,0.000431,0.004349
3394000,0.0324,0.013523,0.002678,0.000431,0.004113
3395000,0.0324,0.013523,0.002678,0.000431,0.003526
3396000,0.0324,0.013523,0.002678,0.000431,0.003878
3397000,0.0324,0.013523,0.002678,0.000431,0.004701
3398000,0.0324,0.013523,0.002678,0.000431,0.003408
3399000,0.0324,0.013523,0.002678,0.000431,0.004113
3400000,0.0324,0.013523,0.002678,0.000431,0.004349
3401000,0.0324,0.013523,0.002678,0.000431,0.003408
3402000,0.0324,0.013523,0.002678,0.000431,0.004113
3403000,0.0324,0.013523,0.002678,0.000431,0.004466
3404000,0.0324,0.013523,0.002678,0.000431,0.003643
3405000,0.0324,0.013523,0.002678,0.000431,0.003526
3406000,0.0324,0.013523,0.002678,0.000431,0.004584
3407000,0.0324,0.013523,0.002678,0.000431,0.003878
3408000,0.0324,0.013523,0.002678,0.000431,0.003761
3409000,0.0324,0.013523,0.002678,0.000431,0.004113
3410000,0.0324,0.013523,0.002678,0.000431,0.004349
3411000,0.0324,0.013523,0.002678,0.000431,0.003996
3412000,0.0324,0.013523,0.002678,0.000431,0.003996
3413000,0.0324,0.013523,0.002678,0.000431,0.004113
3414000,0.0324,0.013523,0.002678,0.000431,0.003878
3415000,0.0324,0.013523,0.002678,0.000431,0.003878
3416000,0.0324,0.013523,0.002678,0.000431,0.004349
3417000,0.0324,0.013523,0.002678,0.000431,0.003761
3418000,0.0324,0.013523,0.002678,0.000431,0.003878
3419000,0.0324,0.013523,0.002678,0.000431,0.004113
3420000,0.0324,0.013523,0.002678,0.000431,0.003996
3421000,0.0324,0.013523,0.002678,0.000431,0.004113
3422000,0.0324,0.013523,0.002678,0.000431,0.003996
3423000,0.0324,0.013523,0.002678,0.000431,0.004349
3424000,0.0324,0.013523,0.002678,0.000431,0.004113
3425000,0.0324,0.013523,0.002678,0.000431,0.003291
3426000,0.0324,0.013523,0.002678,0.000431,0.004231
3427000,0.0324,0.013523,0.002678,0.000431,0.004113
3428000,0.0324,0.013523,0.002678,0.000431,0.003761
3429000,0.0324,0.013523,0.002678,0.000431,0.004231
3430000,0.0324,0.013523,0.002678,0.000431,0.003526
3431000,0.0324,0.013523,0.002678,0.000431,0.003996
3432000,0.0324,0.013523,0.002678,0.000431,0.003996
3433000,0.0324,0.013523,0.002678,0.000431,0.003996
3434000,0.0324,0.013523,0.002678,0.000431,0.003526
3435000,0.0324,0.013523,0.002678,0.000431,0.004466
3436000,0.0324,0.013523,0.002678,0.000431,0.003526
3437000,0.0324,0.013523,0.002678,0.000431,0.003643
3438000,0.0324,0.013523,0.002678,0.000431,0.003996
3439000,0.0324,0.013523,0.002678,0.000431,0.004349
3440000,0.0324,0.013523,0.002678,0.000431,0.003761
3441000,0.0324,0.013523,0.002678,0.000431,0.003996
3442000,0.0324,0.013523,0.002678,0.000431,0.003996
3443000,0.0324,0.013523,0.002678,0.000431,0.003996
3444000,0.0324,0.013523,0.002678,0.000431,0.004113
3445000,0.0324,0.013523,0.002678,0.000431,0.004349
3446000,0.0324,0.013523,0.002678,0.000431,0.003408
3447000,0.0324,0.013523,0.002678,0.000431,0.003878
3448000,0.0324,0.013523,0.002678,0.000431,0.004584
3449000,0.0324,0.013523,0.002678,0.000431,0.004231
3450000,0.0324,0.013523,0.002678,0.000431,0.003408
3451000,0.0324,0.013523,0.002678,0.000431,0.004584
3452000,0.0324,0.013523,0.002678,0.000431,0.003878
3453000,0.0324,0.013523,0.002678,0.000431,0.003291
3454000,0.0324,0.013523,0.002678,0.000431,0.004349
3455000,0.0324,0.013523,0.002678,0.000431,0.004231
3456000,0.0324,0.013523,0.002678,0.000431,0.003408
3457000,0.0324,0.013523,0.002678,0.000431,0.004231
3458000,0.0324,0.013523,0.002678,0.000431,0.004349
3459000,0.0324,0.013523,0.002678,0.000431,0.003643
3460000,0.0324,0.013523,0.002678,0.000431,0.003996
3461000,0.0324,0.013523,0.002678,0.000431,0.003878
3462000,0.0324,0.013523,0.002678,0.000431,0.003996
3463000,0.0324,0.013523,0.002678,0.000431,0.003761
3464000,0.0324,0.013523,0.002678,0.000431,0.003761
3465000,0.0324,0.013523,0.002678,0.000431,0.004349
3466000,0.0324,0.013523,0.002678,0.000431,0.003526
3467000,0.0324,0.013523,0.002678,0.000431,0.003761
3468000,0.0324,0.013523,0.002678,0.000431,0.004466
3469000,0.0324,0.013523,0.002678,0.000431,0.003878
3470000,0.0324,0.013523,0.002678,0.000431,0.003408
3471000,0.0324,0.013523,0.002678,0.000431,0.004349
3472000,0.0324,0.013523,0.002678,0.000431,0.003878
3473000,0.0324,0.013523,0.002678,0.000431,0.003761
3474000,0.0324,0.013523,0.002678,0.000431,0.004349
3475000,0.0324,0.013523,0.002678,0.000431,0.004349
3476000,0.0324,0.013523,0.002678,0.000431,0.003996
3477000,0.0324,0.013523,0.002678,0.000431,0.003526
3478000,0.0324,0.013523,0.002678,0.000431,0.004113
3479000,0.0324,0.013523,0.002678,0.000431,0.004349
3480000,0.0324,0.013523,0.002678,0.000431,0.003291
3481000,0.0324,0.013523,0.002678,0.000431,0.003996
3482000,0.0324,0.013523,0.002678,0.000431,0.004113
3483000,0.0324,0.013523,0.002678,0.000431,0.003878
3484000,0.0324,0.013523,0.002678,0.000431,0.003761
3485000,0.0324,0.013523,0.002678,0.000431,0.003761
3486000,0.0324,0.013523,0.002678,0.000431,0.004349
3487000,0.0324,0.013523,0.002678,0.000431,0.003643
3488000,0.0324,0.013523,0.002678,0.000431,0.004349
3489000,0.0324,0.013523,0.002678,0.000431,0.003996
3490000,0.0324,0.013523,0.002678,0.000431,0.003291
3491000,0.0324,0.013523,0.002678,0.000431,0.004349
3492000,0.0324,0.013523,0.002678,0.000431,0.003878
3493000,0.0324,0.013523,0.002678,0.000431,0.003761
3494000,0.0324,0.013523,0.002678,0.000431,0.003878
3495000,0.0324,0.013523,0.002678,0.000431,0.004466
3496000,0.0324,0.013523,0.002678,0.000431,0.003878
3497000,0.0324,0.013523,0.002678,0.000431,0.003408
3498000,0.0324,0.013523,0.002678,0.000431,0.004466
3499000,0.0324,0.013523,0.002678,0.000431,0.003761
3500000,0.0324,0.013523,0.002678,0.000431,0.003526
3501000,0.0324,0.013523,0.002678,0.000431,0.003643
3502000,0.0324,0.013523,0.002678,0.000431,0.004231
3503000,0.0324,0.013523,0.002678,0.000431,0.003878
3504000,0.0324,0.013523,0.002678,0.000431,0.003761
3505000,0.0324,0.013523,0.002678,0.000431,0.003996
3506000,0.0324,0.013523,0.002678,0.000431,0.003643
3507000,0.0324,0.013523,0.002678,0.000431,0.004231
3508000,0.0324,0.013523,0.002678,0.000431,0.003643
3509000,0.0324,0.013523,0.002678,0.000431,0.003996
3510000,0.0324,0.013523,0.002678,0.000431,0.003996
3511000,0.0324,0.013523,0.002678,0.000431,0.003996
3512000,0.0324,0.013523,0.002678,0.000431,0.003643
3513000,0.0324,0.013523,0.002678,0.000431,0.003878
3514000,0.0324,0.013523,0.002678,0.000431,0.004349
3515000,0.0324,0.013523,0.002678,0.000431,0.003996
3516000,0.0324,0.013523,0.002678,0.000431,0.003761
3517000,0.0324,0.013523,0.002678,0.000431,0.004349
3518000,0.0324,0.013523,0.002678,0.000431,0.003761
3519000,0.0324,0.013523,0.002678,0.000431,0.003878
3520000,0.0324,0.013523,0.002678,0.000431,0.004231
3521000,0.0324,0.013523,0.002678,0.000431,0.003878
3522000,0.0324,0.013523,0.002678,0.000431,0.003996
3523000,0.0324,0.013523,0.002678,0.000431,0.004231
3524000,0.0324,0.013523,0.002678,0.000431,0.003996
3525000,0.0324,0.013523,0.002678,0.000431,0.003761
3526000,0.0324,0.013523,0.002678,0.000431,0.004466
3527000,0.0324,0.013523,0.002678,0.000431,0.003761
3528000,0.0324,0.013523,0.002678,0.000431,0.003996
3529000,0.0324,0.013523,0.002678,0.000431,0.003643
3530000,0.0324,0.013523,0.002678,0.000431,0.004466
3531000,0.0324,0.013523,0.002678,0.000431,0.003643
3532000,0.0324,0.013523,0.002678,0.000431,0.004349
3533000,0.0324,0.013523,0.002678,0.000431,0.004349
3534000,0.0324,0.013523,0.002678,0.000431,0.003408
3535000,0.0324,0.013523,0.002678,0.000431,0.004113
3536000,0.0324,0.013523,0.002678,0.000431,0.003643
3537000,0.0324,0.013523,0.002678,0.000431,0.004113
3538000,0.0324,0.013523,0.002678,0.000431,0.003878
3539000,0.0324,0.013523,0.002678,0.000431,0.003878
3540000,0.0324,0.013523,0.002678,0.000431,0.004113
3541000,0.0324,0.013523,0.002678,0.000431,0.003878
3542000,0.0324,0.013523,0.002678,0.000431,0.003996
3543000,0.0324,0.013523,0.002678,0.000431,0.004113
3544000,0.0324,0.013523,0.002678,0.000431,0.003291
3545000,0.0324,0.013523,0.002678,0.000431,0.004231
3546000,0.0324,0.013523,0.002678,0.000431,0.004349
3547000,0.0324,0.013523,0.002678,0.000431,0.003408
3548000,0.0324,0.013523,0.002678,0.000431,0.004349
3549000,0.0324,0.013523,0.002678,0.000431,0.003996
3550000,0.0324,0.013523,0.002678,0.000431,0.003643
3551000,0.0324,0.013523,0.002678,0.000431,0.004113
3552000,0.0324,0.013523,0.002678,0.000431,0.003878
3553000,0.0324,0.013523,0.002678,0.000431,0.003878
3554000,0.0324,0.013523,0.002678,0.000431,0.003761
3555000,0.0324,0.013523,0.002678,0.000431,0.004231
3556000,0.0324,0.013523,0.002678,0.000431,0.004113
3557000,0.0324,0.013523,0.002678,0.000431,0.003878
3558000,0.0324,0.013523,0.002678,0.000431,0.004349
3559000,0.0324,0.013523,0.002678,0.000431,0.003408
3560000,0.0324,0.013523,0.002678,0.000431,0.003643
3561000,0.0324,0.013523,0.002678,0.000431,0.004113
3562000,0.0324,0.013523,0.002678,0.000431,0.003643
3563000,0.0324,0.013523,0.002678,0.000431,0.003878
3564000,0.0324,0.013523,0.002678,0.000431,0.004349
3565000,0.0324,0.013523,0.002678,0.000431,0.003408
3566000,0.0324,0.013523,0.002678,0.000431,0.004231
3567000,0.0324,0.013523,0.002678,0.000431,0.004466
3568000,0.0324,0.013523,0.002678,0.000431,0.003996
3569000,0.0324,0.013523,0.002678,0.000431,0.003526
3570000,0.0324,0.013523,0.002678,0.000431,0.003996
3571000,0.0324,0.013523,0.002678,0.000431,0.004113
3572000,0.0324,0.013523,0.002678,0.000431,0.003878
3573000,0.0324,0.013523,0.002678,0.000431,0.004466
3574000,0.0324,0.013523,0.002678,0.000431,0.003643
3575000,0.0324,0.013523,0.002678,0.000431,0.003878
3576000,0.0324,0.013523,0.002678,0.000431,0.003173
3577000,0.0324,0.013523,0.002678,0.000431,0.003643
3578000,0.0324,0.013523,0.002678,0.000431,0.004231
3579000,0.0324,0.013523,0.002678,0.000431,0.002586
3580000,0.0324,0.013523,0.002678,0.000431,0.003173
3581000,0.0324,0.013523,0.002678,0.000431,0.002938
3582000,0.0324,0.013523,0.002678,0.000431,0.002938
3583000,0.0324,0.013523,0.002678,0.000431,0.002703
3584000,0.0324,0.013523,0.002678,0.000431,0.003173
3585000,0.0324,0.013523,0.002678,0.000431,0.002703
3586000,0.0324,0.013523,0.002678,0.000431,0.002821
3587000,0.0324,0.013523,0.002678,0.000431,0.003056
3588000,0.0324,0.013523,0.002678,0.000431,0.002821
3589000,0.0324,0.013523,0.002678,0.000431,0.002586
3590000,0.0324,0.013523,0.002678,0.000431,0.003291
3591000,0.0324,0.013523,0.002678,0.000431,0.002938
3592000,0.0324,0.013523,0.002678,0.000431,0.002233
3593000,0.0324,0.013523,0.002678,0.000431,0.003643
3594000,0.0324,0.013523,0.002678,0.000431,0.002821
3595000,0.0324,0.013523,0.002678,0.000431,0.002703
3596000,0.0324,0.013523,0.002678,0.000431,0.003526
3597000,0.0324,0.013523,0.002678,0.000431,0.002586
3598000,0.0324,0.013523,0.002678,0.000431,0.002351
3599000,0.0324,0.013523,0.002678,0.000431,0.002938
3600000,0.0324,0.013523,0.002678,0.000431,0.003408
3601000,0.0324,0.013523,0.002678,0.000431,0.002586
3602000,0.0324,0.013523,0.002678,0.000431,0.003173
3603000,0.0324,0.013523,0.002678,0.000431,0.002938
3604000,0.0324,0.013523,0.002678,0.000431,0.002586
3605000,0.0324,0.013523,0.002678,0.000431,0.002468
3606000,0.0324,0.013523,0.002678,0.000431,0.003291
3607000,0.0324,0.013523,0.002678,0.000431,0.002351
3608000,0.0324,0.013523,0.002678,0.000431,0.002703
3609000,0.0324,0.013523,0.002678,0.000431,0.003643
3610000,0.0324,0.013523,0.002678,0.000431,0.002351
3611000,0.0324,0.013523,0.002678,0.000431,0.002586
3612000,0.0324,0.013523,0.002678,0.000431,0.003291
3613000,0.0324,0.013523,0.002678,0.000431,0.002938
3614000,0.0324,0.013523,0.002678,0.000431,0.002703
3615000,0.0324,0.013523,0.002678,0.000431,0.003056
3616000,0.0324,0.013523,0.002678,0.000431,0.003173
3617000,0.0324,0.013523,0.002678,0.000431,0.002703
3618000,0.0324,0.013523,0.002678,0.000431,0.002938
3619000,0.0324,0.013523,0.002678,0.000431,0.003056
3620000,0.0324,0.013523,0.002678,0.000431,0.002938
3621000,0.0324,0.013523,0.002678,0.000431,0.002938
3622000,0.0324,0.013523,0.002678,0.000431,0.003761
3623000,0.0324,0.013523,0.002678,0.000431,0.001880
3624000,0.0324,0.013523,0.002678,0.000431,0.002233
3625000,0.0324,0.013523,0.002678,0.000431,0.002468
3626000,0.0324,0.013523,0.002678,0.000431,0.001763
3627000,0.0324,0.013523,0.002678,0.000431,0.001998
3628000,0.0324,0.013523,0.002678,0.000431,0.002233
3629000,0.0324,0.013523,0.002678,0.000431,0.002233
3630000,0.0324,0.013523,0.002678,0.000431,0.002233
3631000,0.0324,0.013523,0.002678,0.000431,0.002233
3632000,0.0324,0.013523,0.002678,0.000431,0.001880
3633000,0.0324,0.013523,0.002678,0.000431,0.000940
3634000,0.0324,0.013523,0.002678,0.000431,0.001410
3635000,0.0324,0.013523,0.002678,0.000431,0.001763
3636000,0.0324,0.013523,0.002678,0.000431,0.001410
3637000,0.0324,0.013523,0.002678,0.000431,0.001528
3638000,0.0324,0.013523,0.002678,0.000431,0.001175
3639000,0.0324,0.013523,0.002678,0.000431,0.001645
3640000,0.0324,0.013523,0.002678,0.000431,0.001410
3641000,0.0324,0.013523,0.002678,0.000431,0.001410
3642000,0.0324,0.013523,0.002678,0.000431,0.001410
3643000,0.0324,0.013523,0.002678,0.000431,0.001410
3644000,0.0324,0.013523,0.002678,0.000431,0.001410
3645000,0.0324,0.013523,0.002678,0.000431,0.001528
3646000,0.0324,0.013523,0.002678,0.000431,0.001410
3647000,0.0324,0.013523,0.002678,0.000431,0.001410
3648000,0.0324,0.013523,0.002678,0.000431,0.001410
3649000,0.0324,0.013523,0.002678,0.000431,0.001528
3650000,0.0324,0.013523,0.002678,0.000431,0.001410
3651000,0.0324,0.013523,0.002678,0.000431,0.001528
3652000,0.0324,0.013523,0.002678,0.000431,0.001528
3653000,0.0324,0.013523,0.002678,0.000431,0.001410
3654000,0.0324,0.013523,0.002678,0.000431,0.001175
3655000,0.0324,0.013523,0.002678,0.000431,0.001528
3656000,0.0324,0.013523,0.002678,0.000431,0.001410
3657000,0.0324,0.013523,0.002678,0.000431,0.001293
3658000,0.0324,0.013523,0.002678,0.000431,0.001528
3659000,0.0324,0.013523,0.002678,0.000431,0.001410
3660000,0.0324,0.013523,0.002678,0.000431,0.001410
3661000,0.0324,0.013523,0.002678,0.000431,0.001293
3662000,0.0324,0.013523,0.002678,0.000431,0.001645
3663000,0.0324,0.013523,0.002678,0.000431,0.001293
3664000,0.0324,0.013523,0.002678,0.000431,0.001410
3665000,0.0324,0.013523,0.002678,0.000431,0.001528
3666000,0.0324,0.013523,0.002678,0.000431,0.001410
3667000,0.0324,0.013523,0.002678,0.000431,0.001645
3668000,0.0324,0.013523,0.002678,0.000431,0.001528
3669000,0.0324,0.013523,0.002678,0.000431,0.001293
3670000,0.0324,0.013523,0.002678,0.000431,0.001645
3671000,0.0324,0.013523,0.002678,0.000431,0.001410
3672000,0.0324,0.013523,0.002678,0.000431,0.001410
3673000,0.0324,0.013523,0.002678,0.000431,0.001645
3674000,0.0324,0.013523,0.002678,0.000431,0.001410
3675000,0.0324,0.013523,0.002678,0.000431,0.001528
3676000,0.0324,0.013523,0.002678,0.000431,0.001528
3677000,0.0324,0.013523,0.002678,0.000431,0.001293
3678000,0.0324,0.013523,0.002678,0.000431,0.001410
3679000,0.0324,0.013523,0.002678,0.000431,0.001528
3680000,0.0324,0.013523,0.002678,0.000431,0.001528
3681000,0.0324,0.013523,0.002678,0.000431,0.001410
3682000,0.0324,0.013523,0.002678,0.000431,0.001293
3683000,0.0324,0.013523,0.002678,0.000431,0.001528
3684000,0.0324,0.013523,0.002678,0.000431,0.001645
3685000,0.0324,0.013523,0.002678,0.000431,0.001293
3686000,0.0324,0.013523,0.002678,0.000431,0.001645
3687000,0.0324,0.013523,0.002678,0.000431,0.001293
3688000,0.0324,0.013523,0.002678,0.000431,0.001293
3689000,0.0324,0.013523,0.002678,0.000431,0.001645
3690000,0.0324,0.013523,0.002678,0.000431,0.001293
3691000,0.0324,0.013523,0.002678,0.000431,0.001410
3692000,0.0324,0.013523,0.002678,0.000431,0.001175
3693000,0.0324,0.013523,0.002678,0.000431,0.001645
3694000,0.0324,0.013523,0.002678,0.000431,0.001528
3695000,0.0324,0.013523,0.002678,0.000431,0.001410
3696000,0.0324,0.013523,0.002678,0.000431,0.001528
3697000,0.0324,0.013523,0.002678,0.000431,0.001528
3698000,0.0324,0.013523,0.002678,0.000431,0.001175
3699000,0.0324,0.013523,0.002678,0.000431,0.001410
3700000,0.0324,0.013523,0.002678,0.000431,0.001763
3701000,0.0324,0.013523,0.002678,0.000431,0.001410
3702000,0.0324,0.013523,0.002678,0.000431,0.001175
3703000,0.0324,0.013523,0.002678,0.000431,0.001410
3704000,0.0324,0.013523,0.002678,0.000431,0.001410
3705000,0.0324,0.013523,0.002678,0.000431,0.001528
3706000,0.0324,0.013523,0.002678,0.000431,0.001293
3707000,0.0324,0.013523,0.002678,0.000431,0.001528
3708000,0.0324,0.013523,0.002678,0.000431,0.001293
3709000,0.0324,0.013523,0.002678,0.000431,0.001763
3710000,0.0324,0.013523,0.002678,0.000431,0.001410
3711000,0.0324,0.013523,0.002678,0.000431,0.001058
3712000,0.0324,0.013523,0.002678,0.000431,0.001645
3713000,0.0324,0.013523,0.002678,0.000431,0.001528
3714000,0.0324,0.013523,0.002678,0.000431,0.001293
3715000,0.0324,0.013523,0.002678,0.000431,0.001528
3716000,0.0324,0.013523,0.002678,0.000431,0.001410
3717000,0.0324,0.013523,0.002678,0.000431,0.001410
3718000,0.0324,0.013523,0.002678,0.000431,0.001645
3719000,0.0324,0.013523,0.002678,0.000431,0.001410
3720000,0.0324,0.013523,0.002678,0.000431,0.001410
3721000,0.0324,0.013523,0.002678,0.000431,0.001410
3722000,0.0324,0.013523,0.002678,0.000431,0.001410
3723000,0.0324,0.013523,0.002678,0.000431,0.001410
3724000,0.0324,0.013523,0.002678,0.000431,0.001410
3725000,0.0324,0.013523,0.002678,0.000431,0.001410
3726000,0.0324,0.013523,0.002678,0.000431,0.001410
3727000,0.0324,0.013523,0.002678,0.000431,0.001293
3728000,0.0324,0.013523,0.002678,0.000431,0.001410
3729000,0.0324,0.013523,0.002678,0.000431,0.001528
3730000,0.0324,0.013523,0.002678,0.000431,0.001410
3731000,0.0324,0.013523,0.002678,0.000431,0.001645
3732000,0.0324,0.013523,0.002678,0.000431,0.001293
3733000,0.0324,0.013523,0.002678,0.000431,0.001293
3734000,0.0324,0.013523,0.002678,0.000431,0.001293
3735000,0.0324,0.013523,0.002678,0.000431,0.001293
3736000,0.0324,0.013523,0.002678,0.000431,0.001645
3737000,0.0324,0.013523,0.002678,0.000431,0.001528
3738000,0.0324,0.013523,0.002678,0.000431,0.001410
3739000,0.0324,0.013523,0.002678,0.000431,0.001528
3740000,0.0324,0.013523,0.002678,0.000431,0.001410
3741000,0.0324,0.013523,0.002678,0.000431,0.001645
3742000,0.0324,0.013523,0.002678,0.000431,0.001528
3743000,0.0324,0.013523,0.002678,0.000431,0.001410
3744000,0.0324,0.013523,0.002678,0.000431,0.001410
3745000,0.0324,0.013523,0.002678,0.000431,0.001528
3746000,0.0324,0.013523,0.002678,0.000431,0.001293
3747000,0.0324,0.013523,0.002678,0.000431,0.001293
3748000,0.0324,0.013523,0.002678,0.000431,0.001410
3749000,0.0324,0.013523,0.002678,0.000431,0.001293
3750000,0.0324,0.013523,0.002678,0.000431,0.001645
3751000,0.0324,0.013523,0.002678,0.000431,0.001293
3752000,0.0324,0.013523,0.002678,0.000431,0.001528
3753000,0.0324,0.013523,0.002678,0.000431,0.001293
3754000,0.0324,0.013523,0.002678,0.000431,0.001293
3755000,0.0324,0.013523,0.002678,0.000431,0.001293
3756000,0.0324,0.013523,0.002678,0.000431,0.001410
3757000,0.0324,0.013523,0.002678,0.000431,0.001645
3758000,0.0324,0.013523,0.002678,0.000431,0.001528
3759000,0.0324,0.013523,0.002678,0.000431,0.001058
3760000,0.0324,0.013523,0.002678,0.000431,0.001293
3761000,0.0324,0.013523,0.002678,0.000431,0.001645
3762000,0.0324,0.013523,0.002678,0.000431,0.001528
3763000,0.0324,0.013523,0.002678,0.000431,0.001293
3764000,0.0324,0.013523,0.002678,0.000431,0.001645
3765000,0.0324,0.013523,0.002678,0.000431,0.001410
3766000,0.0324,0.013523,0.002678,0.000431,0.001293
3767000,0.0324,0.013523,0.002678,0.000431,0.001410
3768000,0.0324,0.013523,0.002678,0.000431,0.001645
3769000,0.0324,0.013523,0.002678,0.000431,0.001293
3770000,0.0324,0.013523,0.002678,0.000431,0.001410
3771000,0.0324,0.013523,0.002678,0.000431,0.001645
3772000,0.0324,0.013523,0.002678,0.000431,0.001410
3773000,0.0324,0.013523,0.002678,0.000431,0.001528
3774000,0.0324,0.013523,0.002678,0.000431,0.001528
3775000,0.0324,0.013523,0.002678,0.000431,0.001293
3776000,0.0324,0.013523,0.002678,0.000431,0.001410
3777000,0.0324,0.013523,0.002678,0.000431,0.001175
3778000,0.0324,0.013523,0.002678,0.000431,0.001645
3779000,0.0324,0.013523,0.002678,0.000431,0.001410
3780000,0.0324,0.013523,0.002678,0.000431,0.001293
3781000,0.0324,0.013523,0.002678,0.000431,0.001645
3782000,0.0324,0.013523,0.002678,0.000431,0.001410
3783000,0.0324,0.013523,0.002678,0.000431,0.001410
3784000,0.0324,0.013523,0.002678,0.000431,0.001528
3785000,0.0324,0.013523,0.002678,0.000431,0.001410
3786000,0.0324,0.013523,0.002678,0.000431,0.001645
3787000,0.0324,0.013523,0.002678,0.000431,0.001410
3788000,0.0324,0.013523,0.002678,0.000431,0.001293
3789000,0.0324,0.013523,0.002678,0.000431,0.001645
3790000,0.0324,0.013523,0.002678,0.000431,0.001528
3791000,0.0324,0.013523,0.002678,0.000431,0.001293
3792000,0.0324,0.013523,0.002678,0.000431,0.001528
3793000,0.0324,0.013523,0.002678,0.000431,0.001293
3794000,0.0324,0.013523,0.002678,0.000431,0.001528
3795000,0.0324,0.013523,0.002678,0.000431,0.001645
3796000,0.0324,0.013523,0.002678,0.000431,0.001175
3797000,0.0324,0.013523,0.002678,0.000431,0.001410
3798000,0.0324,0.013523,0.002678,0.000431,0.001293
3799000,0.0324,0.013523,0.002678,0.000431,0.001528
3800000,0.0324,0.013523,0.002678,0.000431,0.001293
3801000,0.0324,0.013523,0.002678,0.000431,0.001645
3802000,0.0324,0.013523,0.002678,0.000431,0.001528
3803000,0.0324,0.013523,0.002678,0.000431,0.001293
3804000,0.0324,0.013523,0.002678,0.000431,0.001763
3805000,0.0324,0.013523,0.002678,0.000431,0.001528
3806000,0.0324,0.013523,0.002678,0.000431,0.001645
3807000,0.0324,0.013523,0.002678,0.000431,0.001528
3808000,0.0324,0.013523,0.002678,0.000431,0.001293
3809000,0.0324,0.013523,0.002678,0.000431,0.001293
3810000,0.0324,0.013523,0.002678,0.000431,0.001763
3811000,0.0324,0.013523,0.002678,0.000431,0.001528
3812000,0.0324,0.013523,0.002678,0.000431,0.000940
3813000,0.0324,0.013523,0.002678,0.000431,0.001880
3814000,0.0324,0.013523,0.002678,0.000431,0.001410
3815000,0.0324,0.013523,0.002678,0.000431,0.001410
3816000,0.0324,0.013523,0.002678,0.000431,0.001880
3817000,0.0324,0.013523,0.002678,0.000431,0.001175
3818000,0.0324,0.013523,0.002678,0.000431,0.001175
3819000,0.0324,0.013523,0.002678,0.000431,0.001528
3820000,0.0324,0.013523,0.002678,0.000431,0.001645
3821000,0.0324,0.013523,0.002678,0.000431,0.001293
3822000,0.0324,0.013523,0.002678,0.000431,0.001528
3823000,0.0324,0.013523,0.002678,0.000431,0.001645
3824000,0.0324,0.013523,0.002678,0.000431,0.001293
3825000,0.0324,0.013523,0.002678,0.000431,0.001410
3826000,0.0324,0.013523,0.002678,0.000431,0.001528
3827000,0.0324,0.013523,0.002678,0.000431,0.001293
3828000,0.0324,0.013523,0.002678,0.000431,0.001175
3829000,0.0324,0.013523,0.002678,0.000431,0.001645
3830000,0.0324,0.013523,0.002678,0.000431,0.001645
3831000,0.0324,0.013523,0.002678,0.000431,0.001175
3832000,0.0324,0.013523,0.002678,0.000431,0.001645
3833000,0.0324,0.013523,0.002678,0.000431,0.001410
3834000,0.0324,0.013523,0.002678,0.000431,0.001410
3835000,0.0324,0.013523,0.002678,0.000431,0.001528
3836000,0.0324,0.013523,0.002678,0.000431,0.001293
3837000,0.0324,0.013523,0.002678,0.000431,0.001410
3838000,0.0324,0.013523,0.002678,0.000431,0.001175
3839000,0.0324,0.013523,0.002678,0.000431,0.001645
3840000,0.0324,0.013523,0.002678,0.000431,0.001528
3841000,0.0324,0.013523,0.002678,0.000431,0.001293
3842000,0.0324,0.013523,0.002678,0.000431,0.001528
3843000,0.0324,0.013523,0.002678,0.000431,0.001410
3844000,0.0324,0.013523,0.002678,0.000431,0.001293
3845000,0.0324,0.013523,0.002678,0.000431,0.001645
3846000,0.0324,0.013523,0.002678,0.000431,0.001293
3847000,0.0324,0.013523,0.002678,0.000431,0.001175
3848000,0.0324,0.013523,0.002678,0.000431,0.001293
3849000,0.0324,0.013523,0.002678,0.000431,0.001645
3850000,0.0324,0.013523,0.002678,0.000431,0.001293
3851000,0.0324,0.013523,0.002678,0.000431,0.001410
3852000,0.0324,0.013523,0.002678,0.000431,0.001645
3853000,0.0324,0.013523,0.002678,0.000431,0.001410
3854000,0.0324,0.013523,0.002678,0.000431,0.001293
3855000,0.0324,0.013523,0.002678,0.000431,0.001763
3856000,0.0324,0.013523,0.002678,0.000431,0.001528
3857000,0.0324,0.013523,0.002678,0.000431,0.001175
3858000,0.0324,0.013523,0.002678,0.000431,0.001645
3859000,0.0324,0.013523,0.002678,0.000431,0.001645
3860000,0.0324,0.013523,0.002678,0.000431,0.001175
3861000,0.0324,0.013523,0.002678,0.000431,0.001528
3862000,0.0324,0.013523,0.002678,0.000431,0.001763
3863000,0.0324,0.013523,0.002678,0.000431,0.001293
3864000,0.0324,0.013523,0.002678,0.000431,0.001528
3865000,0.0324,0.013523,0.002678,0.000431,0.001645
3866000,0.0324,0.013523,0.002678,0.000431,0.001293
3867000,0.0324,0.013523,0.002678,0.000431,0.001293
3868000,0.0324,0.013523,0.002678,0.000431,0.001763
3869000,0.0324,0.013523,0.002678,0.000431,0.001293
3870000,0.0324,0.013523,0.002678,0.000431,0.001410
3871000,0.0324,0.013523,0.002678,0.000431,0.001410
3872000,0.0324,0.013523,0.002678,0.000431,0.001645
3873000,0.0324,0.013523,0.002678,0.000431,0.001410
3874000,0.0324,0.013523,0.002678,0.000431,0.001410
3875000,0.0324,0.013523,0.002678,0.000431,0.001410
3876000,0.0324,0.013523,0.002678,0.000431,0.001175
3877000,0.0324,0.013523,0.002678,0.000431,0.001528
3878000,0.0324,0.013523,0.002678,0.000431,0.001645
3879000,0.0324,0.013523,0.002678,0.000431,0.001293
3880000,0.0324,0.013523,0.002678,0.000431,0.001528
3881000,0.0324,0.013523,0.002678,0.000431,0.001410
3882000,0.0324,0.013523,0.002678,0.000431,0.001528
3883000,0.0324,0.013523,0.002678,0.000431,0.001410
3884000,0.0324,0.013523,0.002678,0.000431,0.001528
3885000,0.0324,0.013523,0.002678,0.000431,0.001293
3886000,0.0324,0.013523,0.002678,0.000431,0.001528
3887000,0.0324,0.013523,0.002678,0.000431,0.001410
3888000,0.0324,0.013523,0.002678,0.000431,0.001528
3889000,0.0324,0.013523,0.002678,0.000431,0.001293
3890000,0.0324,0.013523,0.002678,0.000431,0.001528
3891000,0.0324,0.013523,0.002678,0.000431,0.001293
3892000,0.0324,0.013523,0.002678,0.000431,0.001410
3893000,0.0324,0.013523,0.002678,0.000431,0.001880
3894000,0.0324,0.013523,0.002678,0.000431,0.001293
3895000,0.0324,0.013523,0.002678,0.000431,0.001175
3896000,0.0324,0.013523,0.002678,0.000431,0.001645
3897000,0.0324,0.013523,0.002678,0.000431,0.001410
3898000,0.0324,0.013523,0.002678,0.000431,0.001293
3899000,0.0324,0.013523,0.002678,0.000431,0.001410
3900000,0.0324,0.013523,0.002678,0.000431,0.001763
3901000,0.0324,0.013523,0.002678,0.000431,0.001175
3902000,0.0324,0.013523,0.002678,0.000431,0.001645
3903000,0.0324,0.013523,0.002678,0.000431,0.001763
3904000,0.0324,0.013523,0.002678,0.000431,0.001410
3905000,0.0324,0.013523,0.002678,0.000431,0.001528
3906000,0.0324,0.013523,0.002678,0.000431,0.001645
3907000,0.0324,0.013523,0.002678,0.000431,0.001528
3908000,0.0324,0.013523,0.002678,0.000431,0.001293
3909000,0.0324,0.013523,0.002678,0.000431,0.001645
3910000,0.0324,0.013523,0.002678,0.000431,0.001293
3911000,0.0324,0.013523,0.002678,0.000431,0.001175
3912000,0.0324,0.013523,0.002678,0.000431,0.001645
3913000,0.0324,0.013523,0.002678,0.000431,0.001528
3914000,0.0324,0.013523,0.002678,0.000431,0.001528
3915000,0.0324,0.013523,0.002678,0.000431,0.001645
3916000,0.0324,0.013523,0.002678,0.000431,0.001410
3917000,0.0324,0.013523,0.002678,0.000431,0.001175
3918000,0.0324,0.013523,0.002678,0.000431,0.001528
3919000,0.0324,0.013523,0.002678,0.000431,0.001645
3920000,0.0324,0.013523,0.002678,0.000431,0.001175
3921000,0.0324,0.013523,0.002678,0.000431,0.001645
3922000,0.0324,0.013523,0.002678,0.000431,0.001410
3923000,0.0324,0.013523,0.002678,0.000431,0.001058
3924000,0.0324,0.013523,0.002678,0.000431,0.001528
3925000,0.0324,0.013523,0.002678,0.000431,0.001645
3926000,0.0324,0.013523,0.002678,0.000431,0.001410
3927000,0.0324,0.013523,0.002678,0.000431,0.001175
3928000,0.0324,0.013523,0.002678,0.000431,0.001763
3929000,0.0324,0.013523,0.002678,0.000431,0.001175
3930000,0.0324,0.013523,0.002678,0.000431,0.001410
3931000,0.0324,0.013523,0.002678,0.000431,0.001763
3932000,0.0324,0.013523,0.002678,0.000431,0.001175
3933000,0.0324,0.013523,0.002678,0.000431,0.001175
3934000,0.0324,0.013523,0.002678,0.000431,0.001528
3935000,0.0324,0.013523,0.002678,0.000431,0.001763
3936000,0.0324,0.013523,0.002678,0.000431,0.000940
3937000,0.0324,0.013523,0.002678,0.000431,0.001410
3938000,0.0324,0.013523,0.002678,0.000431,0.001880
3939000,0.0324,0.013523,0.002678,0.000431,0.001410
3940000,0.0324,0.013523,0.002678,0.000431,0.001410
3941000,0.0324,0.013523,0.002678,0.000431,0.001880
3942000,0.0324,0.013523,0.002678,0.000431,0.001410
3943000,0.0324,0.013523,0.002678,0.000431,0.001410
3944000,0.0324,0.013523,0.002678,0.000431,0.001410
3945000,0.0324,0.013523,0.002678,0.000431,0.001645
3946000,0.0324,0.013523,0.002678,0.000431,0.001058
3947000,0.0324,0.013523,0.002678,0.000431,0.001528
3948000,0.0324,0.013523,0.002678,0.000431,0.001528
3949000,0.0324,0.013523,0.002678,0.000431,0.001293
3950000,0.0324,0.013523,0.002678,0.000431,0.001410
3951000,0.0324,0.013523,0.002678,0.000431,0.001528
3952000,0.0324,0.013523,0.002678,0.000431,0.001293
3953000,0.0324,0.013523,0.002678,0.000431,0.001645
3954000,0.0324,0.013523,0.002678,0.000431,0.001528
3955000,0.0324,0.013523,0.002678,0.000431,0.001528
3956000,0.0324,0.013523,0.002678,0.000431,0.001645
3957000,0.0324,0.013523,0.002678,0.000431,0.001175
3958000,0.0324,0.013523,0.002678,0.000431,0.001528
3959000,0.0324,0.013523,0.002678,0.000431,0.001410
3960000,0.0324,0.013523,0.002678,0.000431,0.001410
3961000,0.0324,0.013523,0.002678,0.000431,0.001645
3962000,0.0324,0.013523,0.002678,0.000431,0.001410
3963000,0.0324,0.013523,0.002678,0.000431,0.001293
3964000,0.0324,0.013523,0.002678,0.000431,0.001528
3965000,0.0324,0.013523,0.002678,0.000431,0.001410
3966000,0.0324,0.013523,0.002678,0.000431,0.001645
3967000,0.0324,0.013523,0.002678,0.000431,0.001528
3968000,0.0324,0.013523,0.002678,0.000431,0.001410
3969000,0.0324,0.013523,0.002678,0.000431,0.001293
3970000,0.0324,0.013523,0.002678,0.000431,0.001528
3971000,0.0324,0.013523,0.002678,0.000431,0.001293
3972000,0.0324,0.013523,0.002678,0.000431,0.001645
3973000,0.0324,0.013523,0.002678,0.000431,0.001528
3974000,0.0324,0.013523,0.002678,0.000431,0.001293
3975000,0.0324,0.013523,0.002678,0.000431,0.001528
3976000,0.0324,0.013523,0.002678,0.000431,0.001410
3977000,0.0324,0.013523,0.002678,0.000431,0.001293
3978000,0.0324,0.013523,0.002678,0.000431,0.001528
3979000,0.0324,0.013523,0.002678,0.000431,0.001880
3980000,0.0324,0.013523,0.002678,0.000431,0.001293
3981000,0.0324,0.013523,0.002678,0.000431,0.001293
3982000,0.0324,0.013523,0.002678,0.000431,0.001763
3983000,0.0324,0.013523,0.002678,0.000431,0.001293
3984000,0.0324,0.013523,0.002678,0.000431,0.001410
3985000,0.0324,0.013523,0.002678,0.000431,0.001058
3986000,0.0324,0.013523,0.002678,0.000431,0.001763
3987000,0.0324,0.013523,0.002678,0.000431,0.001410
3988000,0.0324,0.013523,0.002678,0.000431,0.001293
3989000,0.0324,0.013523,0.002678,0.000431,0.001763
3990000,0.0324,0.013523,0.002678,0.000431,0.001410
3991000,0.0324,0.013523,0.002678,0.000431,0.001293
3992000,0.0324,0.013523,0.002678,0.000431,0.001528
3993000,0.0324,0.013523,0.002678,0.000431,0.001175
3994000,0.0324,0.013523,0.002678,0.000431,0.001410
3995000,0.0324,0.013523,0.002678,0.000431,0.001645
3996000,0.0324,0.013523,0.002678,0.000431,0.001293
3997000,0.0324,0.013523,0.002678,0.000431,0.001293
3998000,0.0324,0.013523,0.002678,0.000431,0.001410
3999000,0.0324,0.013523,0.002678,0.000431,0.001410
