Cycle,Area(mm^2),PeakDynamic(W),SubthresholdLeakage(W),GateLeakage(W),RunTimeDynamic(W)
9000000,0.0324,0.013523,0.002678,0.000431,0.024446
9001000,0.0324,0.013523,0.002678,0.000431,0.041605
9002000,0.0324,0.013523,0.002678,0.000431,0.031027
9003000,0.0324,0.013523,0.002678,0.000431,0.019980
9004000,0.0324,0.013523,0.002678,0.000431,0.004701
9005000,0.0324,0.013523,0.002678,0.000431,0.012223
9006000,0.0324,0.013523,0.002678,0.000431,0.004701
9007000,0.0324,0.013523,0.002678,0.000431,0.004936
9008000,0.0324,0.013523,0.002678,0.000431,0.037256
9009000,0.0324,0.013523,0.002678,0.000431,0.010695
9010000,0.0324,0.013523,0.002678,0.000431,0.004701
9011000,0.0324,0.013523,0.002678,0.000431,0.005876
9012000,0.0324,0.013523,0.002678,0.000431,0.005876
9013000,0.0324,0.013523,0.002678,0.000431,0.004701
9014000,0.0324,0.013523,0.002678,0.000431,0.077451
9015000,0.0324,0.013523,0.002678,0.000431,0.021743
9016000,0.0324,0.013523,0.002678,0.000431,0.004701
9017000,0.0324,0.013523,0.002678,0.000431,0.004701
9018000,0.0324,0.013523,0.002678,0.000431,0.004701
9019000,0.0324,0.013523,0.002678,0.000431,0.027502
9020000,0.0324,0.013523,0.002678,0.000431,0.004701
9021000,0.0324,0.013523,0.002678,0.000431,0.027267
9022000,0.0324,0.013523,0.002678,0.000431,0.004701
9023000,0.0324,0.013523,0.002678,0.000431,0.004701
9024000,0.0324,0.013523,0.002678,0.000431,0.004701
9025000,0.0324,0.013523,0.002678,0.000431,0.020450
9026000,0.0324,0.013523,0.002678,0.000431,0.040430
9027000,0.0324,0.013523,0.002678,0.000431,0.012223
9028000,0.0324,0.013523,0.002678,0.000431,0.019745
9029000,0.0324,0.013523,0.002678,0.000431,0.004701
9030000,0.0324,0.013523,0.002678,0.000431,0.012223
9031000,0.0324,0.013523,0.002678,0.000431,0.004701
9032000,0.0324,0.013523,0.002678,0.000431,0.004701
9033000,0.0324,0.013523,0.002678,0.000431,0.018569
9034000,0.0324,0.013523,0.002678,0.000431,0.021625
9035000,0.0324,0.013523,0.002678,0.000431,0.010578
9036000,0.0324,0.013523,0.002678,0.000431,0.012811
9037000,0.0324,0.013523,0.002678,0.000431,0.011400
9038000,0.0324,0.013523,0.002678,0.000431,0.004701
9039000,0.0324,0.013523,0.002678,0.000431,0.013046
9040000,0.0324,0.013523,0.002678,0.000431,0.033966
9041000,0.0324,0.013523,0.002678,0.000431,0.012223
9042000,0.0324,0.013523,0.002678,0.000431,0.004701
9043000,0.0324,0.013523,0.002678,0.000431,0.027267
9044000,0.0324,0.013523,0.002678,0.000431,0.004701
9045000,0.0324,0.013523,0.002678,0.000431,0.004701
9046000,0.0324,0.013523,0.002678,0.000431,0.034788
9047000,0.0324,0.013523,0.002678,0.000431,0.004701
9048000,0.0324,0.013523,0.002678,0.000431,0.004701
9049000,0.0324,0.013523,0.002678,0.000431,0.020685
9050000,0.0324,0.013523,0.002678,0.000431,0.048892
9051000,0.0324,0.013523,0.002678,0.000431,0.004701
9052000,0.0324,0.013523,0.002678,0.000431,0.004701
9053000,0.0324,0.013523,0.002678,0.000431,0.011753
9054000,0.0324,0.013523,0.002678,0.000431,0.012458
9055000,0.0324,0.013523,0.002678,0.000431,0.004701
9056000,0.0324,0.013523,0.002678,0.000431,0.042545
9057000,0.0324,0.013523,0.002678,0.000431,0.004701
9058000,0.0324,0.013523,0.002678,0.000431,0.004701
9059000,0.0324,0.013523,0.002678,0.000431,0.004701
9060000,0.0324,0.013523,0.002678,0.000431,0.018569
9061000,0.0324,0.013523,0.002678,0.000431,0.004701
9062000,0.0324,0.013523,0.002678,0.000431,0.004701
9063000,0.0324,0.013523,0.002678,0.000431,0.019745
9064000,0.0324,0.013523,0.002678,0.000431,0.004701
9065000,0.0324,0.013523,0.002678,0.000431,0.004584
9066000,0.0324,0.013523,0.002678,0.000431,0.019745
9067000,0.0324,0.013523,0.002678,0.000431,0.027031
9068000,0.0324,0.013523,0.002678,0.000431,0.011635
9069000,0.0324,0.013523,0.002678,0.000431,0.031262
9070000,0.0324,0.013523,0.002678,0.000431,0.023506
9071000,0.0324,0.013523,0.002678,0.000431,0.004701
9072000,0.0324,0.013523,0.002678,0.000431,0.004701
9073000,0.0324,0.013523,0.002678,0.000431,0.066286
9074000,0.0324,0.013523,0.002678,0.000431,0.024681
9075000,0.0324,0.013523,0.002678,0.000431,0.004701
9076000,0.0324,0.013523,0.002678,0.000431,0.019627
9077000,0.0324,0.013523,0.002678,0.000431,0.004349
9078000,0.0324,0.013523,0.002678,0.000431,0.004701
9079000,0.0324,0.013523,0.002678,0.000431,0.004701
9080000,0.0324,0.013523,0.002678,0.000431,0.012340
9081000,0.0324,0.013523,0.002678,0.000431,0.025856
9082000,0.0324,0.013523,0.002678,0.000431,0.058882
9083000,0.0324,0.013523,0.002678,0.000431,0.004701
9084000,0.0324,0.013523,0.002678,0.000431,0.004701
9085000,0.0324,0.013523,0.002678,0.000431,0.004701
9086000,0.0324,0.013523,0.002678,0.000431,0.004701
9087000,0.0324,0.013523,0.002678,0.000431,0.012223
9088000,0.0324,0.013523,0.002678,0.000431,0.004701
9089000,0.0324,0.013523,0.002678,0.000431,0.012223
9090000,0.0324,0.013523,0.002678,0.000431,0.004701
9091000,0.0324,0.013523,0.002678,0.000431,0.004701
9092000,0.0324,0.013523,0.002678,0.000431,0.004701
9093000,0.0324,0.013523,0.002678,0.000431,0.004701
9094000,0.0324,0.013523,0.002678,0.000431,0.055708
9095000,0.0324,0.013523,0.002678,0.000431,0.039960
9096000,0.0324,0.013523,0.002678,0.000431,0.008462
9097000,0.0324,0.013523,0.002678,0.000431,0.004701
9098000,0.0324,0.013523,0.002678,0.000431,0.004701
9099000,0.0324,0.013523,0.002678,0.000431,0.004701
9100000,0.0324,0.013523,0.002678,0.000431,0.029265
9101000,0.0324,0.013523,0.002678,0.000431,0.087441
9102000,0.0324,0.013523,0.002678,0.000431,0.016571
9103000,0.0324,0.013523,0.002678,0.000431,0.004701
9104000,0.0324,0.013523,0.002678,0.000431,0.004701
9105000,0.0324,0.013523,0.002678,0.000431,0.042310
9106000,0.0324,0.013523,0.002678,0.000431,0.004701
9107000,0.0324,0.013523,0.002678,0.000431,0.004701
9108000,0.0324,0.013523,0.002678,0.000431,0.027267
9109000,0.0324,0.013523,0.002678,0.000431,0.004701
9110000,0.0324,0.013523,0.002678,0.000431,0.004701
9111000,0.0324,0.013523,0.002678,0.000431,0.004701
9112000,0.0324,0.013523,0.002678,0.000431,0.004701
9113000,0.0324,0.013523,0.002678,0.000431,0.012223
9114000,0.0324,0.013523,0.002678,0.000431,0.024916
9115000,0.0324,0.013523,0.002678,0.000431,0.157488
9116000,0.0324,0.013523,0.002678,0.000431,0.004466
9117000,0.0324,0.013523,0.002678,0.000431,0.004466
9118000,0.0324,0.013523,0.002678,0.000431,0.017982
9119000,0.0324,0.013523,0.002678,0.000431,0.006464
9120000,0.0324,0.013523,0.002678,0.000431,0.012223
9121000,0.0324,0.013523,0.002678,0.000431,0.004701
9122000,0.0324,0.013523,0.002678,0.000431,0.004701
9123000,0.0324,0.013523,0.002678,0.000431,0.004701
9124000,0.0324,0.013523,0.002678,0.000431,0.004701
9125000,0.0324,0.013523,0.002678,0.000431,0.042193
9126000,0.0324,0.013523,0.002678,0.000431,0.004584
9127000,0.0324,0.013523,0.002678,0.000431,0.042310
9128000,0.0324,0.013523,0.002678,0.000431,0.012223
9129000,0.0324,0.013523,0.002678,0.000431,0.004701
9130000,0.0324,0.013523,0.002678,0.000431,0.004701
9131000,0.0324,0.013523,0.002678,0.000431,0.027267
9132000,0.0324,0.013523,0.002678,0.000431,0.012223
9133000,0.0324,0.013523,0.002678,0.000431,0.012223
9134000,0.0324,0.013523,0.002678,0.000431,0.057236
9135000,0.0324,0.013523,0.002678,0.000431,0.008345
9136000,0.0324,0.013523,0.002678,0.000431,0.008462
9137000,0.0324,0.013523,0.002678,0.000431,0.004701
9138000,0.0324,0.013523,0.002678,0.000431,0.042310
9139000,0.0324,0.013523,0.002678,0.000431,0.019745
9140000,0.0324,0.013523,0.002678,0.000431,0.004701
9141000,0.0324,0.013523,0.002678,0.000431,0.004701
9142000,0.0324,0.013523,0.002678,0.000431,0.004701
9143000,0.0324,0.013523,0.002678,0.000431,0.004701
9144000,0.0324,0.013523,0.002678,0.000431,0.004701
9145000,0.0324,0.013523,0.002678,0.000431,0.028677
9146000,0.0324,0.013523,0.002678,0.000431,0.018334
9147000,0.0324,0.013523,0.002678,0.000431,0.012223
9148000,0.0324,0.013523,0.002678,0.000431,0.087441
9149000,0.0324,0.013523,0.002678,0.000431,0.004701
9150000,0.0324,0.013523,0.002678,0.000431,0.004701
9151000,0.0324,0.013523,0.002678,0.000431,0.004701
9152000,0.0324,0.013523,0.002678,0.000431,0.023506
9153000,0.0324,0.013523,0.002678,0.000431,0.008462
9154000,0.0324,0.013523,0.002678,0.000431,0.027267
9155000,0.0324,0.013523,0.002678,0.000431,0.004701
9156000,0.0324,0.013523,0.002678,0.000431,0.004466
9157000,0.0324,0.013523,0.002678,0.000431,0.062995
9158000,0.0324,0.013523,0.002678,0.000431,0.040195
9159000,0.0324,0.013523,0.002678,0.000431,0.038549
9160000,0.0324,0.013523,0.002678,0.000431,0.015984
9161000,0.0324,0.013523,0.002678,0.000431,0.046071
9162000,0.0324,0.013523,0.002678,0.000431,0.004701
9163000,0.0324,0.013523,0.002678,0.000431,0.004701
9164000,0.0324,0.013523,0.002678,0.000431,0.049832
9165000,0.0324,0.013523,0.002678,0.000431,0.004584
9166000,0.0324,0.013523,0.002678,0.000431,0.049714
9167000,0.0324,0.013523,0.002678,0.000431,0.086266
9168000,0.0324,0.013523,0.002678,0.000431,0.005876
9169000,0.0324,0.013523,0.002678,0.000431,0.004701
9170000,0.0324,0.013523,0.002678,0.000431,0.004701
9171000,0.0324,0.013523,0.002678,0.000431,0.004701
9172000,0.0324,0.013523,0.002678,0.000431,0.004701
9173000,0.0324,0.013523,0.002678,0.000431,0.045131
9174000,0.0324,0.013523,0.002678,0.000431,0.016807
9175000,0.0324,0.013523,0.002678,0.000431,0.004584
9176000,0.0324,0.013523,0.002678,0.000431,0.004701
9177000,0.0324,0.013523,0.002678,0.000431,0.064876
9178000,0.0324,0.013523,0.002678,0.000431,0.035376
9179000,0.0324,0.013523,0.002678,0.000431,0.056766
9180000,0.0324,0.013523,0.002678,0.000431,0.094963
9181000,0.0324,0.013523,0.002678,0.000431,0.004701
9182000,0.0324,0.013523,0.002678,0.000431,0.004701
9183000,0.0324,0.013523,0.002678,0.000431,0.004701
9184000,0.0324,0.013523,0.002678,0.000431,0.042310
9185000,0.0324,0.013523,0.002678,0.000431,0.004701
9186000,0.0324,0.013523,0.002678,0.000431,0.025739
9187000,0.0324,0.013523,0.002678,0.000431,0.051360
9188000,0.0324,0.013523,0.002678,0.000431,0.004701
9189000,0.0324,0.013523,0.002678,0.000431,0.004701
9190000,0.0324,0.013523,0.002678,0.000431,0.079919
9191000,0.0324,0.013523,0.002678,0.000431,0.004701
9192000,0.0324,0.013523,0.002678,0.000431,0.004701
9193000,0.0324,0.013523,0.002678,0.000431,0.060292
9194000,0.0324,0.013523,0.002678,0.000431,0.016807
9195000,0.0324,0.013523,0.002678,0.000431,0.004701
9196000,0.0324,0.013523,0.002678,0.000431,0.008227
9197000,0.0324,0.013523,0.002678,0.000431,0.008345
9198000,0.0324,0.013523,0.002678,0.000431,0.004584
9199000,0.0324,0.013523,0.002678,0.000431,0.030557
9200000,0.0324,0.013523,0.002678,0.000431,0.061585
9201000,0.0324,0.013523,0.002678,0.000431,0.004701
9202000,0.0324,0.013523,0.002678,0.000431,0.004701
9203000,0.0324,0.013523,0.002678,0.000431,0.004701
9204000,0.0324,0.013523,0.002678,0.000431,0.019745
9205000,0.0324,0.013523,0.002678,0.000431,0.004584
9206000,0.0324,0.013523,0.002678,0.000431,0.012105
9207000,0.0324,0.013523,0.002678,0.000431,0.004701
9208000,0.0324,0.013523,0.002678,0.000431,0.004701
9209000,0.0324,0.013523,0.002678,0.000431,0.004701
9210000,0.0324,0.013523,0.002678,0.000431,0.027267
9211000,0.0324,0.013523,0.002678,0.000431,0.004701
9212000,0.0324,0.013523,0.002678,0.000431,0.028442
9213000,0.0324,0.013523,0.002678,0.000431,0.034788
9214000,0.0324,0.013523,0.002678,0.000431,0.011988
9215000,0.0324,0.013523,0.002678,0.000431,0.004701
9216000,0.0324,0.013523,0.002678,0.000431,0.004701
9217000,0.0324,0.013523,0.002678,0.000431,0.004701
9218000,0.0324,0.013523,0.002678,0.000431,0.004701
9219000,0.0324,0.013523,0.002678,0.000431,0.019745
9220000,0.0324,0.013523,0.002678,0.000431,0.004701
9221000,0.0324,0.013523,0.002678,0.000431,0.004701
9222000,0.0324,0.013523,0.002678,0.000431,0.004701
9223000,0.0324,0.013523,0.002678,0.000431,0.027267
9224000,0.0324,0.013523,0.002678,0.000431,0.012223
9225000,0.0324,0.013523,0.002678,0.000431,0.012223
9226000,0.0324,0.013523,0.002678,0.000431,0.004701
9227000,0.0324,0.013523,0.002678,0.000431,0.070752
9228000,0.0324,0.013523,0.002678,0.000431,0.006347
9229000,0.0324,0.013523,0.002678,0.000431,0.015984
9230000,0.0324,0.013523,0.002678,0.000431,0.036669
9231000,0.0324,0.013523,0.002678,0.000431,0.029147
9232000,0.0324,0.013523,0.002678,0.000431,0.030087
9233000,0.0324,0.013523,0.002678,0.000431,0.009402
9234000,0.0324,0.013523,0.002678,0.000431,0.004701
9235000,0.0324,0.013523,0.002678,0.000431,0.004701
9236000,0.0324,0.013523,0.002678,0.000431,0.004584
9237000,0.0324,0.013523,0.002678,0.000431,0.034553
9238000,0.0324,0.013523,0.002678,0.000431,0.004584
9239000,0.0324,0.013523,0.002678,0.000431,0.042310
9240000,0.0324,0.013523,0.002678,0.000431,0.004701
9241000,0.0324,0.013523,0.002678,0.000431,0.004701
9242000,0.0324,0.013523,0.002678,0.000431,0.004701
9243000,0.0324,0.013523,0.002678,0.000431,0.034788
9244000,0.0324,0.013523,0.002678,0.000431,0.004701
9245000,0.0324,0.013523,0.002678,0.000431,0.042545
9246000,0.0324,0.013523,0.002678,0.000431,0.011753
9247000,0.0324,0.013523,0.002678,0.000431,0.034788
9248000,0.0324,0.013523,0.002678,0.000431,0.004701
9249000,0.0324,0.013523,0.002678,0.000431,0.011400
9250000,0.0324,0.013523,0.002678,0.000431,0.005524
9251000,0.0324,0.013523,0.002678,0.000431,0.012223
9252000,0.0324,0.013523,0.002678,0.000431,0.004701
9253000,0.0324,0.013523,0.002678,0.000431,0.023506
9254000,0.0324,0.013523,0.002678,0.000431,0.008345
9255000,0.0324,0.013523,0.002678,0.000431,0.004584
9256000,0.0324,0.013523,0.002678,0.000431,0.004701
9257000,0.0324,0.013523,0.002678,0.000431,0.035494
9258000,0.0324,0.013523,0.002678,0.000431,0.042310
9259000,0.0324,0.013523,0.002678,0.000431,0.049127
9260000,0.0324,0.013523,0.002678,0.000431,0.042310
9261000,0.0324,0.013523,0.002678,0.000431,0.004701
9262000,0.0324,0.013523,0.002678,0.000431,0.019745
9263000,0.0324,0.013523,0.002678,0.000431,0.004701
9264000,0.0324,0.013523,0.002678,0.000431,0.004701
9265000,0.0324,0.013523,0.002678,0.000431,0.027267
9266000,0.0324,0.013523,0.002678,0.000431,0.008462
9267000,0.0324,0.013523,0.002678,0.000431,0.008462
9268000,0.0324,0.013523,0.002678,0.000431,0.004701
9269000,0.0324,0.013523,0.002678,0.000431,0.019745
9270000,0.0324,0.013523,0.002678,0.000431,0.031615
9271000,0.0324,0.013523,0.002678,0.000431,0.026679
9272000,0.0324,0.013523,0.002678,0.000431,0.008462
9273000,0.0324,0.013523,0.002678,0.000431,0.027267
9274000,0.0324,0.013523,0.002678,0.000431,0.004701
9275000,0.0324,0.013523,0.002678,0.000431,0.004701
9276000,0.0324,0.013523,0.002678,0.000431,0.004584
9277000,0.0324,0.013523,0.002678,0.000431,0.019627
9278000,0.0324,0.013523,0.002678,0.000431,0.004466
9279000,0.0324,0.013523,0.002678,0.000431,0.004701
9280000,0.0324,0.013523,0.002678,0.000431,0.012223
9281000,0.0324,0.013523,0.002678,0.000431,0.004466
9282000,0.0324,0.013523,0.002678,0.000431,0.012223
9283000,0.0324,0.013523,0.002678,0.000431,0.004701
9284000,0.0324,0.013523,0.002678,0.000431,0.008462
9285000,0.0324,0.013523,0.002678,0.000431,0.076158
9286000,0.0324,0.013523,0.002678,0.000431,0.004701
9287000,0.0324,0.013523,0.002678,0.000431,0.008227
9288000,0.0324,0.013523,0.002678,0.000431,0.016219
9289000,0.0324,0.013523,0.002678,0.000431,0.004701
9290000,0.0324,0.013523,0.002678,0.000431,0.004701
9291000,0.0324,0.013523,0.002678,0.000431,0.117293
9292000,0.0324,0.013523,0.002678,0.000431,0.004701
9293000,0.0324,0.013523,0.002678,0.000431,0.079919
9294000,0.0324,0.013523,0.002678,0.000431,0.019627
9295000,0.0324,0.013523,0.002678,0.000431,0.004584
9296000,0.0324,0.013523,0.002678,0.000431,0.004701
9297000,0.0324,0.013523,0.002678,0.000431,0.004701
9298000,0.0324,0.013523,0.002678,0.000431,0.004701
9299000,0.0324,0.013523,0.002678,0.000431,0.014691
9300000,0.0324,0.013523,0.002678,0.000431,0.025034
9301000,0.0324,0.013523,0.002678,0.000431,0.004701
9302000,0.0324,0.013523,0.002678,0.000431,0.004701
9303000,0.0324,0.013523,0.002678,0.000431,0.004701
9304000,0.0324,0.013523,0.002678,0.000431,0.012223
9305000,0.0324,0.013523,0.002678,0.000431,0.004701
9306000,0.0324,0.013523,0.002678,0.000431,0.012458
9307000,0.0324,0.013523,0.002678,0.000431,0.004701
9308000,0.0324,0.013523,0.002678,0.000431,0.004701
9309000,0.0324,0.013523,0.002678,0.000431,0.004584
9310000,0.0324,0.013523,0.002678,0.000431,0.024328
9311000,0.0324,0.013523,0.002678,0.000431,0.188515
9312000,0.0324,0.013523,0.002678,0.000431,0.006817
9313000,0.0324,0.013523,0.002678,0.000431,0.077804
9314000,0.0324,0.013523,0.002678,0.000431,0.004701
9315000,0.0324,0.013523,0.002678,0.000431,0.008462
9316000,0.0324,0.013523,0.002678,0.000431,0.038432
9317000,0.0324,0.013523,0.002678,0.000431,0.028207
9318000,0.0324,0.013523,0.002678,0.000431,0.041252
9319000,0.0324,0.013523,0.002678,0.000431,0.012223
9320000,0.0324,0.013523,0.002678,0.000431,0.012223
9321000,0.0324,0.013523,0.002678,0.000431,0.004701
9322000,0.0324,0.013523,0.002678,0.000431,0.064405
9323000,0.0324,0.013523,0.002678,0.000431,0.012458
9324000,0.0324,0.013523,0.002678,0.000431,0.079919
9325000,0.0324,0.013523,0.002678,0.000431,0.034788
9326000,0.0324,0.013523,0.002678,0.000431,0.072397
9327000,0.0324,0.013523,0.002678,0.000431,0.004701
9328000,0.0324,0.013523,0.002678,0.000431,0.004701
9329000,0.0324,0.013523,0.002678,0.000431,0.004701
9330000,0.0324,0.013523,0.002678,0.000431,0.013633
9331000,0.0324,0.013523,0.002678,0.000431,0.040900
9332000,0.0324,0.013523,0.002678,0.000431,0.004701
9333000,0.0324,0.013523,0.002678,0.000431,0.102485
9334000,0.0324,0.013523,0.002678,0.000431,0.012223
9335000,0.0324,0.013523,0.002678,0.000431,0.004466
9336000,0.0324,0.013523,0.002678,0.000431,0.004701
9337000,0.0324,0.013523,0.002678,0.000431,0.004701
9338000,0.0324,0.013523,0.002678,0.000431,0.012223
9339000,0.0324,0.013523,0.002678,0.000431,0.023271
9340000,0.0324,0.013523,0.002678,0.000431,0.084150
9341000,0.0324,0.013523,0.002678,0.000431,0.004701
9342000,0.0324,0.013523,0.002678,0.000431,0.094963
9343000,0.0324,0.013523,0.002678,0.000431,0.004701
9344000,0.0324,0.013523,0.002678,0.000431,0.059117
9345000,0.0324,0.013523,0.002678,0.000431,0.010225
9346000,0.0324,0.013523,0.002678,0.000431,0.094963
9347000,0.0324,0.013523,0.002678,0.000431,0.012693
9348000,0.0324,0.013523,0.002678,0.000431,0.035846
9349000,0.0324,0.013523,0.002678,0.000431,0.018687
9350000,0.0324,0.013523,0.002678,0.000431,0.004701
9351000,0.0324,0.013523,0.002678,0.000431,0.057354
9352000,0.0324,0.013523,0.002678,0.000431,0.102837
9353000,0.0324,0.013523,0.002678,0.000431,0.079802
9354000,0.0324,0.013523,0.002678,0.000431,0.004701
9355000,0.0324,0.013523,0.002678,0.000431,0.012223
9356000,0.0324,0.013523,0.002678,0.000431,0.004701
9357000,0.0324,0.013523,0.002678,0.000431,0.004701
9358000,0.0324,0.013523,0.002678,0.000431,0.004701
9359000,0.0324,0.013523,0.002678,0.000431,0.172179
9360000,0.0324,0.013523,0.002678,0.000431,0.017982
9361000,0.0324,0.013523,0.002678,0.000431,0.005524
9362000,0.0324,0.013523,0.002678,0.000431,0.086618
9363000,0.0324,0.013523,0.002678,0.000431,0.004701
9364000,0.0324,0.013523,0.002678,0.000431,0.004466
9365000,0.0324,0.013523,0.002678,0.000431,0.008462
9366000,0.0324,0.013523,0.002678,0.000431,0.015866
9367000,0.0324,0.013523,0.002678,0.000431,0.004584
9368000,0.0324,0.013523,0.002678,0.000431,0.004701
9369000,0.0324,0.013523,0.002678,0.000431,0.035023
9370000,0.0324,0.013523,0.002678,0.000431,0.004584
9371000,0.0324,0.013523,0.002678,0.000431,0.004819
9372000,0.0324,0.013523,0.002678,0.000431,0.065346
9373000,0.0324,0.013523,0.002678,0.000431,0.004701
9374000,0.0324,0.013523,0.002678,0.000431,0.004701
9375000,0.0324,0.013523,0.002678,0.000431,0.025034
9376000,0.0324,0.013523,0.002678,0.000431,0.197917
9377000,0.0324,0.013523,0.002678,0.000431,0.008815
9378000,0.0324,0.013523,0.002678,0.000431,0.004701
9379000,0.0324,0.013523,0.002678,0.000431,0.042310
9380000,0.0324,0.013523,0.002678,0.000431,0.004701
9381000,0.0324,0.013523,0.002678,0.000431,0.004701
9382000,0.0324,0.013523,0.002678,0.000431,0.004701
9383000,0.0324,0.013523,0.002678,0.000431,0.012223
9384000,0.0324,0.013523,0.002678,0.000431,0.004701
9385000,0.0324,0.013523,0.002678,0.000431,0.037962
9386000,0.0324,0.013523,0.002678,0.000431,0.099781
9387000,0.0324,0.013523,0.002678,0.000431,0.004701
9388000,0.0324,0.013523,0.002678,0.000431,0.004584
9389000,0.0324,0.013523,0.002678,0.000431,0.026914
9390000,0.0324,0.013523,0.002678,0.000431,0.004701
9391000,0.0324,0.013523,0.002678,0.000431,0.004701
9392000,0.0324,0.013523,0.002678,0.000431,0.074043
9393000,0.0324,0.013523,0.002678,0.000431,0.025621
9394000,0.0324,0.013523,0.002678,0.000431,0.004701
9395000,0.0324,0.013523,0.002678,0.000431,0.004701
9396000,0.0324,0.013523,0.002678,0.000431,0.042310
9397000,0.0324,0.013523,0.002678,0.000431,0.004701
9398000,0.0324,0.013523,0.002678,0.000431,0.004701
9399000,0.0324,0.013523,0.002678,0.000431,0.197917
9400000,0.0324,0.013523,0.002678,0.000431,0.044426
9401000,0.0324,0.013523,0.002678,0.000431,0.004701
9402000,0.0324,0.013523,0.002678,0.000431,0.012223
9403000,0.0324,0.013523,0.002678,0.000431,0.041723
9404000,0.0324,0.013523,0.002678,0.000431,0.118116
9405000,0.0324,0.013523,0.002678,0.000431,0.014456
9406000,0.0324,0.013523,0.002678,0.000431,0.049362
9407000,0.0324,0.013523,0.002678,0.000431,0.048304
9408000,0.0324,0.013523,0.002678,0.000431,0.004701
9409000,0.0324,0.013523,0.002678,0.000431,0.004701
9410000,0.0324,0.013523,0.002678,0.000431,0.027267
9411000,0.0324,0.013523,0.002678,0.000431,0.012223
9412000,0.0324,0.013523,0.002678,0.000431,0.012223
9413000,0.0324,0.013523,0.002678,0.000431,0.019745
9414000,0.0324,0.013523,0.002678,0.000431,0.004701
9415000,0.0324,0.013523,0.002678,0.000431,0.004701
9416000,0.0324,0.013523,0.002678,0.000431,0.004701
9417000,0.0324,0.013523,0.002678,0.000431,0.004701
9418000,0.0324,0.013523,0.002678,0.000431,0.004701
9419000,0.0324,0.013523,0.002678,0.000431,0.013751
9420000,0.0324,0.013523,0.002678,0.000431,0.048304
9421000,0.0324,0.013523,0.002678,0.000431,0.004701
9422000,0.0324,0.013523,0.002678,0.000431,0.004701
9423000,0.0324,0.013523,0.002678,0.000431,0.004701
9424000,0.0324,0.013523,0.002678,0.000431,0.027267
9425000,0.0324,0.013523,0.002678,0.000431,0.042310
9426000,0.0324,0.013523,0.002678,0.000431,0.019745
9427000,0.0324,0.013523,0.002678,0.000431,0.004701
9428000,0.0324,0.013523,0.002678,0.000431,0.004701
9429000,0.0324,0.013523,0.002678,0.000431,0.004701
9430000,0.0324,0.013523,0.002678,0.000431,0.004701
9431000,0.0324,0.013523,0.002678,0.000431,0.058059
9432000,0.0324,0.013523,0.002678,0.000431,0.011400
9433000,0.0324,0.013523,0.002678,0.000431,0.004584
9434000,0.0324,0.013523,0.002678,0.000431,0.004701
9435000,0.0324,0.013523,0.002678,0.000431,0.004584
9436000,0.0324,0.013523,0.002678,0.000431,0.012105
9437000,0.0324,0.013523,0.002678,0.000431,0.018569
9438000,0.0324,0.013523,0.002678,0.000431,0.066051
9439000,0.0324,0.013523,0.002678,0.000431,0.027267
9440000,0.0324,0.013523,0.002678,0.000431,0.004701
9441000,0.0324,0.013523,0.002678,0.000431,0.004701
9442000,0.0324,0.013523,0.002678,0.000431,0.021155
9443000,0.0324,0.013523,0.002678,0.000431,0.025621
9444000,0.0324,0.013523,0.002678,0.000431,0.019980
9445000,0.0324,0.013523,0.002678,0.000431,0.061820
9446000,0.0324,0.013523,0.002678,0.000431,0.034083
9447000,0.0324,0.013523,0.002678,0.000431,0.015984
9448000,0.0324,0.013523,0.002678,0.000431,0.004701
9449000,0.0324,0.013523,0.002678,0.000431,0.027267
9450000,0.0324,0.013523,0.002678,0.000431,0.012223
9451000,0.0324,0.013523,0.002678,0.000431,0.038667
9452000,0.0324,0.013523,0.002678,0.000431,0.016101
9453000,0.0324,0.013523,0.002678,0.000431,0.011988
9454000,0.0324,0.013523,0.002678,0.000431,0.038784
9455000,0.0324,0.013523,0.002678,0.000431,0.023506
9456000,0.0324,0.013523,0.002678,0.000431,0.004701
9457000,0.0324,0.013523,0.002678,0.000431,0.004701
9458000,0.0324,0.013523,0.002678,0.000431,0.023506
9459000,0.0324,0.013523,0.002678,0.000431,0.008462
9460000,0.0324,0.013523,0.002678,0.000431,0.004701
9461000,0.0324,0.013523,0.002678,0.000431,0.004701
9462000,0.0324,0.013523,0.002678,0.000431,0.004701
9463000,0.0324,0.013523,0.002678,0.000431,0.012223
9464000,0.0324,0.013523,0.002678,0.000431,0.029147
9465000,0.0324,0.013523,0.002678,0.000431,0.021390
9466000,0.0324,0.013523,0.002678,0.000431,0.046071
9467000,0.0324,0.013523,0.002678,0.000431,0.004701
9468000,0.0324,0.013523,0.002678,0.000431,0.006111
9469000,0.0324,0.013523,0.002678,0.000431,0.025621
9470000,0.0324,0.013523,0.002678,0.000431,0.008462
9471000,0.0324,0.013523,0.002678,0.000431,0.008462
9472000,0.0324,0.013523,0.002678,0.000431,0.027267
9473000,0.0324,0.013523,0.002678,0.000431,0.012223
9474000,0.0324,0.013523,0.002678,0.000431,0.004701
9475000,0.0324,0.013523,0.002678,0.000431,0.052300
9476000,0.0324,0.013523,0.002678,0.000431,0.013516
9477000,0.0324,0.013523,0.002678,0.000431,0.008462
9478000,0.0324,0.013523,0.002678,0.000431,0.004466
9479000,0.0324,0.013523,0.002678,0.000431,0.015984
9480000,0.0324,0.013523,0.002678,0.000431,0.015984
9481000,0.0324,0.013523,0.002678,0.000431,0.004701
9482000,0.0324,0.013523,0.002678,0.000431,0.004466
9483000,0.0324,0.013523,0.002678,0.000431,0.034788
9484000,0.0324,0.013523,0.002678,0.000431,0.004701
9485000,0.0324,0.013523,0.002678,0.000431,0.004701
9486000,0.0324,0.013523,0.002678,0.000431,0.004701
9487000,0.0324,0.013523,0.002678,0.000431,0.012223
9488000,0.0324,0.013523,0.002678,0.000431,0.004701
9489000,0.0324,0.013523,0.002678,0.000431,0.046071
9490000,0.0324,0.013523,0.002678,0.000431,0.081800
9491000,0.0324,0.013523,0.002678,0.000431,0.028912
9492000,0.0324,0.013523,0.002678,0.000431,0.004701
9493000,0.0324,0.013523,0.002678,0.000431,0.004701
9494000,0.0324,0.013523,0.002678,0.000431,0.004701
9495000,0.0324,0.013523,0.002678,0.000431,0.004701
9496000,0.0324,0.013523,0.002678,0.000431,0.057354
9497000,0.0324,0.013523,0.002678,0.000431,0.064876
9498000,0.0324,0.013523,0.002678,0.000431,0.057354
9499000,0.0324,0.013523,0.002678,0.000431,0.004701
9500000,0.0324,0.013523,0.002678,0.000431,0.004701
9501000,0.0324,0.013523,0.002678,0.000431,0.004701
9502000,0.0324,0.013523,0.002678,0.000431,0.005876
9503000,0.0324,0.013523,0.002678,0.000431,0.116588
9504000,0.0324,0.013523,0.002678,0.000431,0.004701
9505000,0.0324,0.013523,0.002678,0.000431,0.004701
9506000,0.0324,0.013523,0.002678,0.000431,0.004701
9507000,0.0324,0.013523,0.002678,0.000431,0.004701
9508000,0.0324,0.013523,0.002678,0.000431,0.004701
9509000,0.0324,0.013523,0.002678,0.000431,0.029147
9510000,0.0324,0.013523,0.002678,0.000431,0.040430
9511000,0.0324,0.013523,0.002678,0.000431,0.004701
9512000,0.0324,0.013523,0.002678,0.000431,0.004701
9513000,0.0324,0.013523,0.002678,0.000431,0.004701
9514000,0.0324,0.013523,0.002678,0.000431,0.004701
9515000,0.0324,0.013523,0.002678,0.000431,0.005994
9516000,0.0324,0.013523,0.002678,0.000431,0.010695
9517000,0.0324,0.013523,0.002678,0.000431,0.031498
9518000,0.0324,0.013523,0.002678,0.000431,0.007757
9519000,0.0324,0.013523,0.002678,0.000431,0.004701
9520000,0.0324,0.013523,0.002678,0.000431,0.004701
9521000,0.0324,0.013523,0.002678,0.000431,0.004701
9522000,0.0324,0.013523,0.002678,0.000431,0.022448
9523000,0.0324,0.013523,0.002678,0.000431,0.047129
9524000,0.0324,0.013523,0.002678,0.000431,0.012811
9525000,0.0324,0.013523,0.002678,0.000431,0.071575
9526000,0.0324,0.013523,0.002678,0.000431,0.026209
9527000,0.0324,0.013523,0.002678,0.000431,0.125638
9528000,0.0324,0.013523,0.002678,0.000431,0.008462
9529000,0.0324,0.013523,0.002678,0.000431,0.023506
9530000,0.0324,0.013523,0.002678,0.000431,0.004701
9531000,0.0324,0.013523,0.002678,0.000431,0.028912
9532000,0.0324,0.013523,0.002678,0.000431,0.010578
9533000,0.0324,0.013523,0.002678,0.000431,0.008227
9534000,0.0324,0.013523,0.002678,0.000431,0.008227
9535000,0.0324,0.013523,0.002678,0.000431,0.046306
9536000,0.0324,0.013523,0.002678,0.000431,0.023506
9537000,0.0324,0.013523,0.002678,0.000431,0.004701
9538000,0.0324,0.013523,0.002678,0.000431,0.004701
9539000,0.0324,0.013523,0.002678,0.000431,0.004701
9540000,0.0324,0.013523,0.002678,0.000431,0.019745
9541000,0.0324,0.013523,0.002678,0.000431,0.012576
9542000,0.0324,0.013523,0.002678,0.000431,0.139506
9543000,0.0324,0.013523,0.002678,0.000431,0.004701
9544000,0.0324,0.013523,0.002678,0.000431,0.025269
9545000,0.0324,0.013523,0.002678,0.000431,0.006699
9546000,0.0324,0.013523,0.002678,0.000431,0.015749
9547000,0.0324,0.013523,0.002678,0.000431,0.038784
9548000,0.0324,0.013523,0.002678,0.000431,0.004701
9549000,0.0324,0.013523,0.002678,0.000431,0.004701
9550000,0.0324,0.013523,0.002678,0.000431,0.004584
9551000,0.0324,0.013523,0.002678,0.000431,0.004584
9552000,0.0324,0.013523,0.002678,0.000431,0.004701
9553000,0.0324,0.013523,0.002678,0.000431,0.004701
9554000,0.0324,0.013523,0.002678,0.000431,0.034553
9555000,0.0324,0.013523,0.002678,0.000431,0.027267
9556000,0.0324,0.013523,0.002678,0.000431,0.004701
9557000,0.0324,0.013523,0.002678,0.000431,0.027267
9558000,0.0324,0.013523,0.002678,0.000431,0.004701
9559000,0.0324,0.013523,0.002678,0.000431,0.023506
9560000,0.0324,0.013523,0.002678,0.000431,0.008462
9561000,0.0324,0.013523,0.002678,0.000431,0.004701
9562000,0.0324,0.013523,0.002678,0.000431,0.027267
9563000,0.0324,0.013523,0.002678,0.000431,0.004701
9564000,0.0324,0.013523,0.002678,0.000431,0.019745
9565000,0.0324,0.013523,0.002678,0.000431,0.004701
9566000,0.0324,0.013523,0.002678,0.000431,0.117293
9567000,0.0324,0.013523,0.002678,0.000431,0.004701
9568000,0.0324,0.013523,0.002678,0.000431,0.049362
9569000,0.0324,0.013523,0.002678,0.000431,0.005171
9570000,0.0324,0.013523,0.002678,0.000431,0.052065
9571000,0.0324,0.013523,0.002678,0.000431,0.009990
9572000,0.0324,0.013523,0.002678,0.000431,0.004701
9573000,0.0324,0.013523,0.002678,0.000431,0.004701
9574000,0.0324,0.013523,0.002678,0.000431,0.004466
9575000,0.0324,0.013523,0.002678,0.000431,0.004701
9576000,0.0324,0.013523,0.002678,0.000431,0.004701
9577000,0.0324,0.013523,0.002678,0.000431,0.004701
9578000,0.0324,0.013523,0.002678,0.000431,0.004701
9579000,0.0324,0.013523,0.002678,0.000431,0.012223
9580000,0.0324,0.013523,0.002678,0.000431,0.004701
9581000,0.0324,0.013523,0.002678,0.000431,0.012223
9582000,0.0324,0.013523,0.002678,0.000431,0.004701
9583000,0.0324,0.013523,0.002678,0.000431,0.021743
9584000,0.0324,0.013523,0.002678,0.000431,0.010225
9585000,0.0324,0.013523,0.002678,0.000431,0.004701
9586000,0.0324,0.013523,0.002678,0.000431,0.004701
9587000,0.0324,0.013523,0.002678,0.000431,0.142209
9588000,0.0324,0.013523,0.002678,0.000431,0.055003
9589000,0.0324,0.013523,0.002678,0.000431,0.004701
9590000,0.0324,0.013523,0.002678,0.000431,0.012223
9591000,0.0324,0.013523,0.002678,0.000431,0.004701
9592000,0.0324,0.013523,0.002678,0.000431,0.027267
9593000,0.0324,0.013523,0.002678,0.000431,0.004701
9594000,0.0324,0.013523,0.002678,0.000431,0.079449
9595000,0.0324,0.013523,0.002678,0.000431,0.004701
9596000,0.0324,0.013523,0.002678,0.000431,0.030087
9597000,0.0324,0.013523,0.002678,0.000431,0.024211
9598000,0.0324,0.013523,0.002678,0.000431,0.023506
9599000,0.0324,0.013523,0.002678,0.000431,0.008462
9600000,0.0324,0.013523,0.002678,0.000431,0.008462
9601000,0.0324,0.013523,0.002678,0.000431,0.023506
9602000,0.0324,0.013523,0.002678,0.000431,0.004701
9603000,0.0324,0.013523,0.002678,0.000431,0.004701
9604000,0.0324,0.013523,0.002678,0.000431,0.004701
9605000,0.0324,0.013523,0.002678,0.000431,0.083680
9606000,0.0324,0.013523,0.002678,0.000431,0.008462
9607000,0.0324,0.013523,0.002678,0.000431,0.004936
9608000,0.0324,0.013523,0.002678,0.000431,0.004701
9609000,0.0324,0.013523,0.002678,0.000431,0.004701
9610000,0.0324,0.013523,0.002678,0.000431,0.027031
9611000,0.0324,0.013523,0.002678,0.000431,0.004701
9612000,0.0324,0.013523,0.002678,0.000431,0.004701
9613000,0.0324,0.013523,0.002678,0.000431,0.042310
9614000,0.0324,0.013523,0.002678,0.000431,0.012223
9615000,0.0324,0.013523,0.002678,0.000431,0.004701
9616000,0.0324,0.013523,0.002678,0.000431,0.004701
9617000,0.0324,0.013523,0.002678,0.000431,0.019745
9618000,0.0324,0.013523,0.002678,0.000431,0.049244
9619000,0.0324,0.013523,0.002678,0.000431,0.012811
9620000,0.0324,0.013523,0.002678,0.000431,0.019745
9621000,0.0324,0.013523,0.002678,0.000431,0.004701
9622000,0.0324,0.013523,0.002678,0.000431,0.004701
9623000,0.0324,0.013523,0.002678,0.000431,0.004584
9624000,0.0324,0.013523,0.002678,0.000431,0.004584
9625000,0.0324,0.013523,0.002678,0.000431,0.042310
9626000,0.0324,0.013523,0.002678,0.000431,0.019745
9627000,0.0324,0.013523,0.002678,0.000431,0.004701
9628000,0.0324,0.013523,0.002678,0.000431,0.004701
9629000,0.0324,0.013523,0.002678,0.000431,0.004701
9630000,0.0324,0.013523,0.002678,0.000431,0.027267
9631000,0.0324,0.013523,0.002678,0.000431,0.012223
9632000,0.0324,0.013523,0.002678,0.000431,0.004936
9633000,0.0324,0.013523,0.002678,0.000431,0.004701
9634000,0.0324,0.013523,0.002678,0.000431,0.004349
9635000,0.0324,0.013523,0.002678,0.000431,0.004584
9636000,0.0324,0.013523,0.002678,0.000431,0.004936
9637000,0.0324,0.013523,0.002678,0.000431,0.004701
9638000,0.0324,0.013523,0.002678,0.000431,0.019745
9639000,0.0324,0.013523,0.002678,0.000431,0.004701
9640000,0.0324,0.013523,0.002678,0.000431,0.004701
9641000,0.0324,0.013523,0.002678,0.000431,0.004701
9642000,0.0324,0.013523,0.002678,0.000431,0.004701
9643000,0.0324,0.013523,0.002678,0.000431,0.042310
9644000,0.0324,0.013523,0.002678,0.000431,0.008345
9645000,0.0324,0.013523,0.002678,0.000431,0.022800
9646000,0.0324,0.013523,0.002678,0.000431,0.027854
9647000,0.0324,0.013523,0.002678,0.000431,0.004701
9648000,0.0324,0.013523,0.002678,0.000431,0.004701
9649000,0.0324,0.013523,0.002678,0.000431,0.023506
9650000,0.0324,0.013523,0.002678,0.000431,0.015984
9651000,0.0324,0.013523,0.002678,0.000431,0.004701
9652000,0.0324,0.013523,0.002678,0.000431,0.004701
9653000,0.0324,0.013523,0.002678,0.000431,0.019745
9654000,0.0324,0.013523,0.002678,0.000431,0.004701
9655000,0.0324,0.013523,0.002678,0.000431,0.004701
9656000,0.0324,0.013523,0.002678,0.000431,0.004701
9657000,0.0324,0.013523,0.002678,0.000431,0.004701
9658000,0.0324,0.013523,0.002678,0.000431,0.030440
9659000,0.0324,0.013523,0.002678,0.000431,0.054180
9660000,0.0324,0.013523,0.002678,0.000431,0.004701
9661000,0.0324,0.013523,0.002678,0.000431,0.004701
9662000,0.0324,0.013523,0.002678,0.000431,0.022918
9663000,0.0324,0.013523,0.002678,0.000431,0.009050
9664000,0.0324,0.013523,0.002678,0.000431,0.004701
9665000,0.0324,0.013523,0.002678,0.000431,0.024916
9666000,0.0324,0.013523,0.002678,0.000431,0.014809
9667000,0.0324,0.013523,0.002678,0.000431,0.004701
9668000,0.0324,0.013523,0.002678,0.000431,0.004701
9669000,0.0324,0.013523,0.002678,0.000431,0.027267
9670000,0.0324,0.013523,0.002678,0.000431,0.004701
9671000,0.0324,0.013523,0.002678,0.000431,0.019745
9672000,0.0324,0.013523,0.002678,0.000431,0.087441
9673000,0.0324,0.013523,0.002678,0.000431,0.004701
9674000,0.0324,0.013523,0.002678,0.000431,0.004466
9675000,0.0324,0.013523,0.002678,0.000431,0.004466
9676000,0.0324,0.013523,0.002678,0.000431,0.004701
9677000,0.0324,0.013523,0.002678,0.000431,0.019745
9678000,0.0324,0.013523,0.002678,0.000431,0.004701
9679000,0.0324,0.013523,0.002678,0.000431,0.012223
9680000,0.0324,0.013523,0.002678,0.000431,0.004701
9681000,0.0324,0.013523,0.002678,0.000431,0.004701
9682000,0.0324,0.013523,0.002678,0.000431,0.027267
9683000,0.0324,0.013523,0.002678,0.000431,0.004701
9684000,0.0324,0.013523,0.002678,0.000431,0.012105
9685000,0.0324,0.013523,0.002678,0.000431,0.027149
9686000,0.0324,0.013523,0.002678,0.000431,0.004701
9687000,0.0324,0.013523,0.002678,0.000431,0.004701
9688000,0.0324,0.013523,0.002678,0.000431,0.019392
9689000,0.0324,0.013523,0.002678,0.000431,0.080037
9690000,0.0324,0.013523,0.002678,0.000431,0.004701
9691000,0.0324,0.013523,0.002678,0.000431,0.019745
9692000,0.0324,0.013523,0.002678,0.000431,0.004701
9693000,0.0324,0.013523,0.002678,0.000431,0.004701
9694000,0.0324,0.013523,0.002678,0.000431,0.004701
9695000,0.0324,0.013523,0.002678,0.000431,0.004701
9696000,0.0324,0.013523,0.002678,0.000431,0.039960
9697000,0.0324,0.013523,0.002678,0.000431,0.007287
9698000,0.0324,0.013523,0.002678,0.000431,0.027502
9699000,0.0324,0.013523,0.002678,0.000431,0.004701
9700000,0.0324,0.013523,0.002678,0.000431,0.004701
9701000,0.0324,0.013523,0.002678,0.000431,0.004701
9702000,0.0324,0.013523,0.002678,0.000431,0.004701
9703000,0.0324,0.013523,0.002678,0.000431,0.012105
9704000,0.0324,0.013523,0.002678,0.000431,0.072280
9705000,0.0324,0.013523,0.002678,0.000431,0.004701
9706000,0.0324,0.013523,0.002678,0.000431,0.004701
9707000,0.0324,0.013523,0.002678,0.000431,0.004701
9708000,0.0324,0.013523,0.002678,0.000431,0.004701
9709000,0.0324,0.013523,0.002678,0.000431,0.013398
9710000,0.0324,0.013523,0.002678,0.000431,0.056178
9711000,0.0324,0.013523,0.002678,0.000431,0.087441
9712000,0.0324,0.013523,0.002678,0.000431,0.004701
9713000,0.0324,0.013523,0.002678,0.000431,0.004466
9714000,0.0324,0.013523,0.002678,0.000431,0.004701
9715000,0.0324,0.013523,0.002678,0.000431,0.004466
9716000,0.0324,0.013523,0.002678,0.000431,0.008462
9717000,0.0324,0.013523,0.002678,0.000431,0.008462
9718000,0.0324,0.013523,0.002678,0.000431,0.004701
9719000,0.0324,0.013523,0.002678,0.000431,0.004701
9720000,0.0324,0.013523,0.002678,0.000431,0.004701
9721000,0.0324,0.013523,0.002678,0.000431,0.004701
9722000,0.0324,0.013523,0.002678,0.000431,0.004701
9723000,0.0324,0.013523,0.002678,0.000431,0.027031
9724000,0.0324,0.013523,0.002678,0.000431,0.004701
9725000,0.0324,0.013523,0.002678,0.000431,0.004701
9726000,0.0324,0.013523,0.002678,0.000431,0.004701
9727000,0.0324,0.013523,0.002678,0.000431,0.012223
9728000,0.0324,0.013523,0.002678,0.000431,0.012223
9729000,0.0324,0.013523,0.002678,0.000431,0.004701
9730000,0.0324,0.013523,0.002678,0.000431,0.004701
9731000,0.0324,0.013523,0.002678,0.000431,0.034788
9732000,0.0324,0.013523,0.002678,0.000431,0.004701
9733000,0.0324,0.013523,0.002678,0.000431,0.004701
9734000,0.0324,0.013523,0.002678,0.000431,0.019745
9735000,0.0324,0.013523,0.002678,0.000431,0.012223
9736000,0.0324,0.013523,0.002678,0.000431,0.004701
9737000,0.0324,0.013523,0.002678,0.000431,0.012223
9738000,0.0324,0.013523,0.002678,0.000431,0.004466
9739000,0.0324,0.013523,0.002678,0.000431,0.004701
9740000,0.0324,0.013523,0.002678,0.000431,0.017512
9741000,0.0324,0.013523,0.002678,0.000431,0.074865
9742000,0.0324,0.013523,0.002678,0.000431,0.012223
9743000,0.0324,0.013523,0.002678,0.000431,0.034788
9744000,0.0324,0.013523,0.002678,0.000431,0.019510
9745000,0.0324,0.013523,0.002678,0.000431,0.004701
9746000,0.0324,0.013523,0.002678,0.000431,0.004701
9747000,0.0324,0.013523,0.002678,0.000431,0.034788
9748000,0.0324,0.013523,0.002678,0.000431,0.004701
9749000,0.0324,0.013523,0.002678,0.000431,0.004701
9750000,0.0324,0.013523,0.002678,0.000431,0.008462
9751000,0.0324,0.013523,0.002678,0.000431,0.008462
9752000,0.0324,0.013523,0.002678,0.000431,0.004701
9753000,0.0324,0.013523,0.002678,0.000431,0.004584
9754000,0.0324,0.013523,0.002678,0.000431,0.019627
9755000,0.0324,0.013523,0.002678,0.000431,0.004466
9756000,0.0324,0.013523,0.002678,0.000431,0.019745
9757000,0.0324,0.013523,0.002678,0.000431,0.057354
9758000,0.0324,0.013523,0.002678,0.000431,0.004701
9759000,0.0324,0.013523,0.002678,0.000431,0.004701
9760000,0.0324,0.013523,0.002678,0.000431,0.034788
9761000,0.0324,0.013523,0.002678,0.000431,0.004701
9762000,0.0324,0.013523,0.002678,0.000431,0.012223
9763000,0.0324,0.013523,0.002678,0.000431,0.041840
9764000,0.0324,0.013523,0.002678,0.000431,0.005171
9765000,0.0324,0.013523,0.002678,0.000431,0.004701
9766000,0.0324,0.013523,0.002678,0.000431,0.004701
9767000,0.0324,0.013523,0.002678,0.000431,0.004701
9768000,0.0324,0.013523,0.002678,0.000431,0.012223
9769000,0.0324,0.013523,0.002678,0.000431,0.004701
9770000,0.0324,0.013523,0.002678,0.000431,0.012223
9771000,0.0324,0.013523,0.002678,0.000431,0.004701
9772000,0.0324,0.013523,0.002678,0.000431,0.004701
9773000,0.0324,0.013523,0.002678,0.000431,0.004701
9774000,0.0324,0.013523,0.002678,0.000431,0.004701
9775000,0.0324,0.013523,0.002678,0.000431,0.012223
9776000,0.0324,0.013523,0.002678,0.000431,0.030792
9777000,0.0324,0.013523,0.002678,0.000431,0.008697
9778000,0.0324,0.013523,0.002678,0.000431,0.004466
9779000,0.0324,0.013523,0.002678,0.000431,0.004701
9780000,0.0324,0.013523,0.002678,0.000431,0.004701
9781000,0.0324,0.013523,0.002678,0.000431,0.063230
9782000,0.0324,0.013523,0.002678,0.000431,0.028912
9783000,0.0324,0.013523,0.002678,0.000431,0.004701
9784000,0.0324,0.013523,0.002678,0.000431,0.004466
9785000,0.0324,0.013523,0.002678,0.000431,0.004701
9786000,0.0324,0.013523,0.002678,0.000431,0.012223
9787000,0.0324,0.013523,0.002678,0.000431,0.023388
9788000,0.0324,0.013523,0.002678,0.000431,0.046189
9789000,0.0324,0.013523,0.002678,0.000431,0.027267
9790000,0.0324,0.013523,0.002678,0.000431,0.004701
9791000,0.0324,0.013523,0.002678,0.000431,0.004701
9792000,0.0324,0.013523,0.002678,0.000431,0.012223
9793000,0.0324,0.013523,0.002678,0.000431,0.004584
9794000,0.0324,0.013523,0.002678,0.000431,0.038432
9795000,0.0324,0.013523,0.002678,0.000431,0.008227
9796000,0.0324,0.013523,0.002678,0.000431,0.027267
9797000,0.0324,0.013523,0.002678,0.000431,0.004701
9798000,0.0324,0.013523,0.002678,0.000431,0.004701
9799000,0.0324,0.013523,0.002678,0.000431,0.019745
9800000,0.0324,0.013523,0.002678,0.000431,0.008462
9801000,0.0324,0.013523,0.002678,0.000431,0.015984
9802000,0.0324,0.013523,0.002678,0.000431,0.004701
9803000,0.0324,0.013523,0.002678,0.000431,0.004701
9804000,0.0324,0.013523,0.002678,0.000431,0.004701
9805000,0.0324,0.013523,0.002678,0.000431,0.012223
9806000,0.0324,0.013523,0.002678,0.000431,0.004701
9807000,0.0324,0.013523,0.002678,0.000431,0.012223
9808000,0.0324,0.013523,0.002678,0.000431,0.019745
9809000,0.0324,0.013523,0.002678,0.000431,0.019745
9810000,0.0324,0.013523,0.002678,0.000431,0.004701
9811000,0.0324,0.013523,0.002678,0.000431,0.004701
9812000,0.0324,0.013523,0.002678,0.000431,0.004701
9813000,0.0324,0.013523,0.002678,0.000431,0.046306
9814000,0.0324,0.013523,0.002678,0.000431,0.068401
9815000,0.0324,0.013523,0.002678,0.000431,0.019745
9816000,0.0324,0.013523,0.002678,0.000431,0.004701
9817000,0.0324,0.013523,0.002678,0.000431,0.004701
9818000,0.0324,0.013523,0.002678,0.000431,0.045836
9819000,0.0324,0.013523,0.002678,0.000431,0.023506
9820000,0.0324,0.013523,0.002678,0.000431,0.015984
9821000,0.0324,0.013523,0.002678,0.000431,0.015984
9822000,0.0324,0.013523,0.002678,0.000431,0.004701
9823000,0.0324,0.013523,0.002678,0.000431,0.004701
9824000,0.0324,0.013523,0.002678,0.000431,0.004584
9825000,0.0324,0.013523,0.002678,0.000431,0.102367
9826000,0.0324,0.013523,0.002678,0.000431,0.008462
9827000,0.0324,0.013523,0.002678,0.000431,0.061115
9828000,0.0324,0.013523,0.002678,0.000431,0.087441
9829000,0.0324,0.013523,0.002678,0.000431,0.004701
9830000,0.0324,0.013523,0.002678,0.000431,0.004701
9831000,0.0324,0.013523,0.002678,0.000431,0.008462
9832000,0.0324,0.013523,0.002678,0.000431,0.008462
9833000,0.0324,0.013523,0.002678,0.000431,0.050067
9834000,0.0324,0.013523,0.002678,0.000431,0.060880
9835000,0.0324,0.013523,0.002678,0.000431,0.008345
9836000,0.0324,0.013523,0.002678,0.000431,0.004584
9837000,0.0324,0.013523,0.002678,0.000431,0.004701
9838000,0.0324,0.013523,0.002678,0.000431,0.027267
9839000,0.0324,0.013523,0.002678,0.000431,0.042310
9840000,0.0324,0.013523,0.002678,0.000431,0.012223
9841000,0.0324,0.013523,0.002678,0.000431,0.019745
9842000,0.0324,0.013523,0.002678,0.000431,0.004701
9843000,0.0324,0.013523,0.002678,0.000431,0.004701
9844000,0.0324,0.013523,0.002678,0.000431,0.038549
9845000,0.0324,0.013523,0.002678,0.000431,0.015984
9846000,0.0324,0.013523,0.002678,0.000431,0.031027
9847000,0.0324,0.013523,0.002678,0.000431,0.038549
9848000,0.0324,0.013523,0.002678,0.000431,0.004701
9849000,0.0324,0.013523,0.002678,0.000431,0.004701
9850000,0.0324,0.013523,0.002678,0.000431,0.004701
9851000,0.0324,0.013523,0.002678,0.000431,0.012223
9852000,0.0324,0.013523,0.002678,0.000431,0.012223
9853000,0.0324,0.013523,0.002678,0.000431,0.004466
9854000,0.0324,0.013523,0.002678,0.000431,0.004701
9855000,0.0324,0.013523,0.002678,0.000431,0.004701
9856000,0.0324,0.013523,0.002678,0.000431,0.004701
9857000,0.0324,0.013523,0.002678,0.000431,0.004701
9858000,0.0324,0.013523,0.002678,0.000431,0.004701
9859000,0.0324,0.013523,0.002678,0.000431,0.019745
9860000,0.0324,0.013523,0.002678,0.000431,0.019745
9861000,0.0324,0.013523,0.002678,0.000431,0.004701
9862000,0.0324,0.013523,0.002678,0.000431,0.004701
9863000,0.0324,0.013523,0.002678,0.000431,0.004701
9864000,0.0324,0.013523,0.002678,0.000431,0.004466
9865000,0.0324,0.013523,0.002678,0.000431,0.085561
9866000,0.0324,0.013523,0.002678,0.000431,0.021625
9867000,0.0324,0.013523,0.002678,0.000431,0.004701
9868000,0.0324,0.013523,0.002678,0.000431,0.004701
9869000,0.0324,0.013523,0.002678,0.000431,0.004701
9870000,0.0324,0.013523,0.002678,0.000431,0.004701
9871000,0.0324,0.013523,0.002678,0.000431,0.004701
9872000,0.0324,0.013523,0.002678,0.000431,0.080389
9873000,0.0324,0.013523,0.002678,0.000431,0.054651
9874000,0.0324,0.013523,0.002678,0.000431,0.006699
9875000,0.0324,0.013523,0.002678,0.000431,0.004584
9876000,0.0324,0.013523,0.002678,0.000431,0.004584
9877000,0.0324,0.013523,0.002678,0.000431,0.019745
9878000,0.0324,0.013523,0.002678,0.000431,0.004701
9879000,0.0324,0.013523,0.002678,0.000431,0.012223
9880000,0.0324,0.013523,0.002678,0.000431,0.004701
9881000,0.0324,0.013523,0.002678,0.000431,0.004701
9882000,0.0324,0.013523,0.002678,0.000431,0.004701
9883000,0.0324,0.013523,0.002678,0.000431,0.004701
9884000,0.0324,0.013523,0.002678,0.000431,0.004701
9885000,0.0324,0.013523,0.002678,0.000431,0.079919
9886000,0.0324,0.013523,0.002678,0.000431,0.027267
9887000,0.0324,0.013523,0.002678,0.000431,0.004701
9888000,0.0324,0.013523,0.002678,0.000431,0.004701
9889000,0.0324,0.013523,0.002678,0.000431,0.004701
9890000,0.0324,0.013523,0.002678,0.000431,0.004701
9891000,0.0324,0.013523,0.002678,0.000431,0.012928
9892000,0.0324,0.013523,0.002678,0.000431,0.022800
9893000,0.0324,0.013523,0.002678,0.000431,0.015749
9894000,0.0324,0.013523,0.002678,0.000431,0.004701
9895000,0.0324,0.013523,0.002678,0.000431,0.004701
9896000,0.0324,0.013523,0.002678,0.000431,0.012223
9897000,0.0324,0.013523,0.002678,0.000431,0.004701
9898000,0.0324,0.013523,0.002678,0.000431,0.015984
9899000,0.0324,0.013523,0.002678,0.000431,0.038549
9900000,0.0324,0.013523,0.002678,0.000431,0.004701
9901000,0.0324,0.013523,0.002678,0.000431,0.004701
9902000,0.0324,0.013523,0.002678,0.000431,0.004701
9903000,0.0324,0.013523,0.002678,0.000431,0.004701
9904000,0.0324,0.013523,0.002678,0.000431,0.027149
9905000,0.0324,0.013523,0.002678,0.000431,0.034671
9906000,0.0324,0.013523,0.002678,0.000431,0.004701
9907000,0.0324,0.013523,0.002678,0.000431,0.004701
9908000,0.0324,0.013523,0.002678,0.000431,0.004701
9909000,0.0324,0.013523,0.002678,0.000431,0.034788
9910000,0.0324,0.013523,0.002678,0.000431,0.004701
9911000,0.0324,0.013523,0.002678,0.000431,0.049832
9912000,0.0324,0.013523,0.002678,0.000431,0.057354
9913000,0.0324,0.013523,0.002678,0.000431,0.004584
9914000,0.0324,0.013523,0.002678,0.000431,0.004584
9915000,0.0324,0.013523,0.002678,0.000431,0.019627
9916000,0.0324,0.013523,0.002678,0.000431,0.004584
9917000,0.0324,0.013523,0.002678,0.000431,0.034788
9918000,0.0324,0.013523,0.002678,0.000431,0.012223
9919000,0.0324,0.013523,0.002678,0.000431,0.004701
9920000,0.0324,0.013523,0.002678,0.000431,0.004701
9921000,0.0324,0.013523,0.002678,0.000431,0.004701
9922000,0.0324,0.013523,0.002678,0.000431,0.049832
9923000,0.0324,0.013523,0.002678,0.000431,0.004701
9924000,0.0324,0.013523,0.002678,0.000431,0.079919
9925000,0.0324,0.013523,0.002678,0.000431,0.034788
9926000,0.0324,0.013523,0.002678,0.000431,0.004701
9927000,0.0324,0.013523,0.002678,0.000431,0.004701
9928000,0.0324,0.013523,0.002678,0.000431,0.088499
9929000,0.0324,0.013523,0.002678,0.000431,0.048539
9930000,0.0324,0.013523,0.002678,0.000431,0.077569
9931000,0.0324,0.013523,0.002678,0.000431,0.029617
9932000,0.0324,0.013523,0.002678,0.000431,0.004701
9933000,0.0324,0.013523,0.002678,0.000431,0.004466
9934000,0.0324,0.013523,0.002678,0.000431,0.004701
9935000,0.0324,0.013523,0.002678,0.000431,0.012223
9936000,0.0324,0.013523,0.002678,0.000431,0.004701
9937000,0.0324,0.013523,0.002678,0.000431,0.012223
9938000,0.0324,0.013523,0.002678,0.000431,0.012223
9939000,0.0324,0.013523,0.002678,0.000431,0.004701
9940000,0.0324,0.013523,0.002678,0.000431,0.004701
9941000,0.0324,0.013523,0.002678,0.000431,0.004701
9942000,0.0324,0.013523,0.002678,0.000431,0.004701
9943000,0.0324,0.013523,0.002678,0.000431,0.027267
9944000,0.0324,0.013523,0.002678,0.000431,0.087323
9945000,0.0324,0.013523,0.002678,0.000431,0.042428
9946000,0.0324,0.013523,0.002678,0.000431,0.004701
9947000,0.0324,0.013523,0.002678,0.000431,0.004701
9948000,0.0324,0.013523,0.002678,0.000431,0.004701
9949000,0.0324,0.013523,0.002678,0.000431,0.014691
9950000,0.0324,0.013523,0.002678,0.000431,0.027384
9951000,0.0324,0.013523,0.002678,0.000431,0.009637
9952000,0.0324,0.013523,0.002678,0.000431,0.004701
9953000,0.0324,0.013523,0.002678,0.000431,0.004584
9954000,0.0324,0.013523,0.002678,0.000431,0.004584
9955000,0.0324,0.013523,0.002678,0.000431,0.004466
9956000,0.0324,0.013523,0.002678,0.000431,0.034788
9957000,0.0324,0.013523,0.002678,0.000431,0.004701
9958000,0.0324,0.013523,0.002678,0.000431,0.004701
9959000,0.0324,0.013523,0.002678,0.000431,0.004466
9960000,0.0324,0.013523,0.002678,0.000431,0.004701
9961000,0.0324,0.013523,0.002678,0.000431,0.004701
9962000,0.0324,0.013523,0.002678,0.000431,0.010695
9963000,0.0324,0.013523,0.002678,0.000431,0.025034
9964000,0.0324,0.013523,0.002678,0.000431,0.008462
9965000,0.0324,0.013523,0.002678,0.000431,0.004701
9966000,0.0324,0.013523,0.002678,0.000431,0.004701
9967000,0.0324,0.013523,0.002678,0.000431,0.042310
9968000,0.0324,0.013523,0.002678,0.000431,0.004701
9969000,0.0324,0.013523,0.002678,0.000431,0.064876
9970000,0.0324,0.013523,0.002678,0.000431,0.019745
9971000,0.0324,0.013523,0.002678,0.000431,0.004701
9972000,0.0324,0.013523,0.002678,0.000431,0.004701
9973000,0.0324,0.013523,0.002678,0.000431,0.019510
9974000,0.0324,0.013523,0.002678,0.000431,0.042310
9975000,0.0324,0.013523,0.002678,0.000431,0.027267
9976000,0.0324,0.013523,0.002678,0.000431,0.012223
9977000,0.0324,0.013523,0.002678,0.000431,0.004701
9978000,0.0324,0.013523,0.002678,0.000431,0.004701
9979000,0.0324,0.013523,0.002678,0.000431,0.004701
9980000,0.0324,0.013523,0.002678,0.000431,0.072397
9981000,0.0324,0.013523,0.002678,0.000431,0.007992
9982000,0.0324,0.013523,0.002678,0.000431,0.031498
9983000,0.0324,0.013523,0.002678,0.000431,0.019745
9984000,0.0324,0.013523,0.002678,0.000431,0.004701
9985000,0.0324,0.013523,0.002678,0.000431,0.004701
9986000,0.0324,0.013523,0.002678,0.000431,0.004701
9987000,0.0324,0.013523,0.002678,0.000431,0.004701
9988000,0.0324,0.013523,0.002678,0.000431,0.041252
9989000,0.0324,0.013523,0.002678,0.000431,0.043368
9990000,0.0324,0.013523,0.002678,0.000431,0.004701
9991000,0.0324,0.013523,0.002678,0.000431,0.004701
9992000,0.0324,0.013523,0.002678,0.000431,0.004701
9993000,0.0324,0.013523,0.002678,0.000431,0.034788
9994000,0.0324,0.013523,0.002678,0.000431,0.034318
9995000,0.0324,0.013523,0.002678,0.000431,0.034671
9996000,0.0324,0.013523,0.002678,0.000431,0.064758
9997000,0.0324,0.013523,0.002678,0.000431,0.004701
9998000,0.0324,0.013523,0.002678,0.000431,0.004701
9999000,0.0324,0.013523,0.002678,0.000431,0.004701
