Cycle,Area(mm^2),PeakDynamic(W),SubthresholdLeakage(W),GateLeakage(W),RunTimeDynamic(W)
26000000,0.0324,0.013523,0.002678,0.000431,0.003878
26001000,0.0324,0.013523,0.002678,0.000431,0.004936
26002000,0.0324,0.013523,0.002678,0.000431,0.003996
26003000,0.0324,0.013523,0.002678,0.000431,0.003878
26004000,0.0324,0.013523,0.002678,0.000431,0.004701
26005000,0.0324,0.013523,0.002678,0.000431,0.004819
26006000,0.0324,0.013523,0.002678,0.000431,0.004349
26007000,0.0324,0.013523,0.002678,0.000431,0.003643
26008000,0.0324,0.013523,0.002678,0.000431,0.004701
26009000,0.0324,0.013523,0.002678,0.000431,0.004231
26010000,0.0324,0.013523,0.002678,0.000431,0.004701
26011000,0.0324,0.013523,0.002678,0.000431,0.004349
26012000,0.0324,0.013523,0.002678,0.000431,0.003526
26013000,0.0324,0.013523,0.002678,0.000431,0.004584
26014000,0.0324,0.013523,0.002678,0.000431,0.004113
26015000,0.0324,0.013523,0.002678,0.000431,0.003761
26016000,0.0324,0.013523,0.002678,0.000431,0.004231
26017000,0.0324,0.013523,0.002678,0.000431,0.004231
26018000,0.0324,0.013523,0.002678,0.000431,0.003878
26019000,0.0324,0.013523,0.002678,0.000431,0.003996
26020000,0.0324,0.013523,0.002678,0.000431,0.004113
26021000,0.0324,0.013523,0.002678,0.000431,0.004819
26022000,0.0324,0.013523,0.002678,0.000431,0.004349
26023000,0.0324,0.013523,0.002678,0.000431,0.004584
26024000,0.0324,0.013523,0.002678,0.000431,0.004701
26025000,0.0324,0.013523,0.002678,0.000431,0.003996
26026000,0.0324,0.013523,0.002678,0.000431,0.004231
26027000,0.0324,0.013523,0.002678,0.000431,0.003878
26028000,0.0324,0.013523,0.002678,0.000431,0.004584
26029000,0.0324,0.013523,0.002678,0.000431,0.004466
26030000,0.0324,0.013523,0.002678,0.000431,0.003761
26031000,0.0324,0.013523,0.002678,0.000431,0.003996
26032000,0.0324,0.013523,0.002678,0.000431,0.004113
26033000,0.0324,0.013523,0.002678,0.000431,0.004701
26034000,0.0324,0.013523,0.002678,0.000431,0.004113
26035000,0.0324,0.013523,0.002678,0.000431,0.004701
26036000,0.0324,0.013523,0.002678,0.000431,0.004584
26037000,0.0324,0.013523,0.002678,0.000431,0.004701
26038000,0.0324,0.013523,0.002678,0.000431,0.004113
26039000,0.0324,0.013523,0.002678,0.000431,0.004701
26040000,0.0324,0.013523,0.002678,0.000431,0.004584
26041000,0.0324,0.013523,0.002678,0.000431,0.004584
26042000,0.0324,0.013523,0.002678,0.000431,0.004231
26043000,0.0324,0.013523,0.002678,0.000431,0.004701
26044000,0.0324,0.013523,0.002678,0.000431,0.004466
26045000,0.0324,0.013523,0.002678,0.000431,0.005054
26046000,0.0324,0.013523,0.002678,0.000431,0.004466
26047000,0.0324,0.013523,0.002678,0.000431,0.004231
26048000,0.0324,0.013523,0.002678,0.000431,0.004349
26049000,0.0324,0.013523,0.002678,0.000431,0.004819
26050000,0.0324,0.013523,0.002678,0.000431,0.004936
26051000,0.0324,0.013523,0.002678,0.000431,0.004466
26052000,0.0324,0.013523,0.002678,0.000431,0.003996
26053000,0.0324,0.013523,0.002678,0.000431,0.004231
26054000,0.0324,0.013523,0.002678,0.000431,0.004701
26055000,0.0324,0.013523,0.002678,0.000431,0.004701
26056000,0.0324,0.013523,0.002678,0.000431,0.004936
26057000,0.0324,0.013523,0.002678,0.000431,0.004231
26058000,0.0324,0.013523,0.002678,0.000431,0.004231
26059000,0.0324,0.013523,0.002678,0.000431,0.004701
26060000,0.0324,0.013523,0.002678,0.000431,0.005054
26061000,0.0324,0.013523,0.002678,0.000431,0.004819
26062000,0.0324,0.013523,0.002678,0.000431,0.005171
26063000,0.0324,0.013523,0.002678,0.000431,0.004113
26064000,0.0324,0.013523,0.002678,0.000431,0.003878
26065000,0.0324,0.013523,0.002678,0.000431,0.003878
26066000,0.0324,0.013523,0.002678,0.000431,0.004584
26067000,0.0324,0.013523,0.002678,0.000431,0.004113
26068000,0.0324,0.013523,0.002678,0.000431,0.004466
26069000,0.0324,0.013523,0.002678,0.000431,0.004584
26070000,0.0324,0.013523,0.002678,0.000431,0.004466
26071000,0.0324,0.013523,0.002678,0.000431,0.004349
26072000,0.0324,0.013523,0.002678,0.000431,0.004936
26073000,0.0324,0.013523,0.002678,0.000431,0.004349
26074000,0.0324,0.013523,0.002678,0.000431,0.004466
26075000,0.0324,0.013523,0.002678,0.000431,0.004349
26076000,0.0324,0.013523,0.002678,0.000431,0.004819
26077000,0.0324,0.013523,0.002678,0.000431,0.003643
26078000,0.0324,0.013523,0.002678,0.000431,0.004584
26079000,0.0324,0.013523,0.002678,0.000431,0.003996
26080000,0.0324,0.013523,0.002678,0.000431,0.004349
26081000,0.0324,0.013523,0.002678,0.000431,0.003761
26082000,0.0324,0.013523,0.002678,0.000431,0.004584
26083000,0.0324,0.013523,0.002678,0.000431,0.004584
26084000,0.0324,0.013523,0.002678,0.000431,0.004231
26085000,0.0324,0.013523,0.002678,0.000431,0.004466
26086000,0.0324,0.013523,0.002678,0.000431,0.004701
26087000,0.0324,0.013523,0.002678,0.000431,0.004819
26088000,0.0324,0.013523,0.002678,0.000431,0.004231
26089000,0.0324,0.013523,0.002678,0.000431,0.004349
26090000,0.0324,0.013523,0.002678,0.000431,0.004113
26091000,0.0324,0.013523,0.002678,0.000431,0.004349
26092000,0.0324,0.013523,0.002678,0.000431,0.004584
26093000,0.0324,0.013523,0.002678,0.000431,0.003878
26094000,0.0324,0.013523,0.002678,0.000431,0.004231
26095000,0.0324,0.013523,0.002678,0.000431,0.004584
26096000,0.0324,0.013523,0.002678,0.000431,0.004466
26097000,0.0324,0.013523,0.002678,0.000431,0.004113
26098000,0.0324,0.013523,0.002678,0.000431,0.004113
26099000,0.0324,0.013523,0.002678,0.000431,0.004231
26100000,0.0324,0.013523,0.002678,0.000431,0.004584
26101000,0.0324,0.013523,0.002678,0.000431,0.004584
26102000,0.0324,0.013523,0.002678,0.000431,0.004466
26103000,0.0324,0.013523,0.002678,0.000431,0.004231
26104000,0.0324,0.013523,0.002678,0.000431,0.004349
26105000,0.0324,0.013523,0.002678,0.000431,0.004113
26106000,0.0324,0.013523,0.002678,0.000431,0.004819
26107000,0.0324,0.013523,0.002678,0.000431,0.004466
26108000,0.0324,0.013523,0.002678,0.000431,0.004113
26109000,0.0324,0.013523,0.002678,0.000431,0.003878
26110000,0.0324,0.013523,0.002678,0.000431,0.005054
26111000,0.0324,0.013523,0.002678,0.000431,0.004584
26112000,0.0324,0.013523,0.002678,0.000431,0.004113
26113000,0.0324,0.013523,0.002678,0.000431,0.004936
26114000,0.0324,0.013523,0.002678,0.000431,0.003761
26115000,0.0324,0.013523,0.002678,0.000431,0.004466
26116000,0.0324,0.013523,0.002678,0.000431,0.004701
26117000,0.0324,0.013523,0.002678,0.000431,0.005524
26118000,0.0324,0.013523,0.002678,0.000431,0.004584
26119000,0.0324,0.013523,0.002678,0.000431,0.004584
26120000,0.0324,0.013523,0.002678,0.000431,0.004349
26121000,0.0324,0.013523,0.002678,0.000431,0.004819
26122000,0.0324,0.013523,0.002678,0.000431,0.004819
26123000,0.0324,0.013523,0.002678,0.000431,0.005171
26124000,0.0324,0.013523,0.002678,0.000431,0.003996
26125000,0.0324,0.013523,0.002678,0.000431,0.003996
26126000,0.0324,0.013523,0.002678,0.000431,0.004701
26127000,0.0324,0.013523,0.002678,0.000431,0.005289
26128000,0.0324,0.013523,0.002678,0.000431,0.003996
26129000,0.0324,0.013523,0.002678,0.000431,0.004231
26130000,0.0324,0.013523,0.002678,0.000431,0.005054
26131000,0.0324,0.013523,0.002678,0.000431,0.004466
26132000,0.0324,0.013523,0.002678,0.000431,0.004231
26133000,0.0324,0.013523,0.002678,0.000431,0.004231
26134000,0.0324,0.013523,0.002678,0.000431,0.004466
26135000,0.0324,0.013523,0.002678,0.000431,0.003996
26136000,0.0324,0.013523,0.002678,0.000431,0.003761
26137000,0.0324,0.013523,0.002678,0.000431,0.004701
26138000,0.0324,0.013523,0.002678,0.000431,0.004936
26139000,0.0324,0.013523,0.002678,0.000431,0.004936
26140000,0.0324,0.013523,0.002678,0.000431,0.004819
26141000,0.0324,0.013523,0.002678,0.000431,0.004349
26142000,0.0324,0.013523,0.002678,0.000431,0.004584
26143000,0.0324,0.013523,0.002678,0.000431,0.004701
26144000,0.0324,0.013523,0.002678,0.000431,0.003996
26145000,0.0324,0.013523,0.002678,0.000431,0.005171
26146000,0.0324,0.013523,0.002678,0.000431,0.004819
26147000,0.0324,0.013523,0.002678,0.000431,0.005054
26148000,0.0324,0.013523,0.002678,0.000431,0.004466
26149000,0.0324,0.013523,0.002678,0.000431,0.003996
26150000,0.0324,0.013523,0.002678,0.000431,0.004584
26151000,0.0324,0.013523,0.002678,0.000431,0.004349
26152000,0.0324,0.013523,0.002678,0.000431,0.005054
26153000,0.0324,0.013523,0.002678,0.000431,0.004466
26154000,0.0324,0.013523,0.002678,0.000431,0.003643
26155000,0.0324,0.013523,0.002678,0.000431,0.004701
26156000,0.0324,0.013523,0.002678,0.000431,0.004113
26157000,0.0324,0.013523,0.002678,0.000431,0.004584
26158000,0.0324,0.013523,0.002678,0.000431,0.004701
26159000,0.0324,0.013523,0.002678,0.000431,0.004466
26160000,0.0324,0.013523,0.002678,0.000431,0.004584
26161000,0.0324,0.013523,0.002678,0.000431,0.004584
26162000,0.0324,0.013523,0.002678,0.000431,0.004701
26163000,0.0324,0.013523,0.002678,0.000431,0.004819
26164000,0.0324,0.013523,0.002678,0.000431,0.004113
26165000,0.0324,0.013523,0.002678,0.000431,0.004113
26166000,0.0324,0.013523,0.002678,0.000431,0.004936
26167000,0.0324,0.013523,0.002678,0.000431,0.005054
26168000,0.0324,0.013523,0.002678,0.000431,0.003996
26169000,0.0324,0.013523,0.002678,0.000431,0.004936
26170000,0.0324,0.013523,0.002678,0.000431,0.003643
26171000,0.0324,0.013523,0.002678,0.000431,0.004113
26172000,0.0324,0.013523,0.002678,0.000431,0.003996
26173000,0.0324,0.013523,0.002678,0.000431,0.004936
26174000,0.0324,0.013523,0.002678,0.000431,0.004584
26175000,0.0324,0.013523,0.002678,0.000431,0.003761
26176000,0.0324,0.013523,0.002678,0.000431,0.004701
26177000,0.0324,0.013523,0.002678,0.000431,0.004466
26178000,0.0324,0.013523,0.002678,0.000431,0.004231
26179000,0.0324,0.013523,0.002678,0.000431,0.004349
26180000,0.0324,0.013523,0.002678,0.000431,0.004584
26181000,0.0324,0.013523,0.002678,0.000431,0.004584
26182000,0.0324,0.013523,0.002678,0.000431,0.004349
26183000,0.0324,0.013523,0.002678,0.000431,0.004466
26184000,0.0324,0.013523,0.002678,0.000431,0.004466
26185000,0.0324,0.013523,0.002678,0.000431,0.004819
26186000,0.0324,0.013523,0.002678,0.000431,0.004584
26187000,0.0324,0.013523,0.002678,0.000431,0.004231
26188000,0.0324,0.013523,0.002678,0.000431,0.003761
26189000,0.0324,0.013523,0.002678,0.000431,0.004701
26190000,0.0324,0.013523,0.002678,0.000431,0.004231
26191000,0.0324,0.013523,0.002678,0.000431,0.005054
26192000,0.0324,0.013523,0.002678,0.000431,0.004584
26193000,0.0324,0.013523,0.002678,0.000431,0.004349
26194000,0.0324,0.013523,0.002678,0.000431,0.003643
26195000,0.0324,0.013523,0.002678,0.000431,0.004584
26196000,0.0324,0.013523,0.002678,0.000431,0.004819
26197000,0.0324,0.013523,0.002678,0.000431,0.005406
26198000,0.0324,0.013523,0.002678,0.000431,0.003643
26199000,0.0324,0.013523,0.002678,0.000431,0.004349
26200000,0.0324,0.013523,0.002678,0.000431,0.004231
26201000,0.0324,0.013523,0.002678,0.000431,0.004349
26202000,0.0324,0.013523,0.002678,0.000431,0.004701
26203000,0.0324,0.013523,0.002678,0.000431,0.005171
26204000,0.0324,0.013523,0.002678,0.000431,0.004466
26205000,0.0324,0.013523,0.002678,0.000431,0.004231
26206000,0.0324,0.013523,0.002678,0.000431,0.004113
26207000,0.0324,0.013523,0.002678,0.000431,0.004584
26208000,0.0324,0.013523,0.002678,0.000431,0.004349
26209000,0.0324,0.013523,0.002678,0.000431,0.005054
26210000,0.0324,0.013523,0.002678,0.000431,0.004701
26211000,0.0324,0.013523,0.002678,0.000431,0.004231
26212000,0.0324,0.013523,0.002678,0.000431,0.004466
26213000,0.0324,0.013523,0.002678,0.000431,0.003878
26214000,0.0324,0.013523,0.002678,0.000431,0.004113
26215000,0.0324,0.013523,0.002678,0.000431,0.004113
26216000,0.0324,0.013523,0.002678,0.000431,0.004936
26217000,0.0324,0.013523,0.002678,0.000431,0.004349
26218000,0.0324,0.013523,0.002678,0.000431,0.004466
26219000,0.0324,0.013523,0.002678,0.000431,0.004584
26220000,0.0324,0.013523,0.002678,0.000431,0.004113
26221000,0.0324,0.013523,0.002678,0.000431,0.005171
26222000,0.0324,0.013523,0.002678,0.000431,0.004701
26223000,0.0324,0.013523,0.002678,0.000431,0.003996
26224000,0.0324,0.013523,0.002678,0.000431,0.003878
26225000,0.0324,0.013523,0.002678,0.000431,0.004701
26226000,0.0324,0.013523,0.002678,0.000431,0.004936
26227000,0.0324,0.013523,0.002678,0.000431,0.004231
26228000,0.0324,0.013523,0.002678,0.000431,0.004231
26229000,0.0324,0.013523,0.002678,0.000431,0.004113
26230000,0.0324,0.013523,0.002678,0.000431,0.004466
26231000,0.0324,0.013523,0.002678,0.000431,0.004701
26232000,0.0324,0.013523,0.002678,0.000431,0.004349
26233000,0.0324,0.013523,0.002678,0.000431,0.004819
26234000,0.0324,0.013523,0.002678,0.000431,0.004231
26235000,0.0324,0.013523,0.002678,0.000431,0.004584
26236000,0.0324,0.013523,0.002678,0.000431,0.004584
26237000,0.0324,0.013523,0.002678,0.000431,0.004584
26238000,0.0324,0.013523,0.002678,0.000431,0.004584
26239000,0.0324,0.013523,0.002678,0.000431,0.004584
26240000,0.0324,0.013523,0.002678,0.000431,0.004113
26241000,0.0324,0.013523,0.002678,0.000431,0.003996
26242000,0.0324,0.013523,0.002678,0.000431,0.004701
26243000,0.0324,0.013523,0.002678,0.000431,0.004936
26244000,0.0324,0.013523,0.002678,0.000431,0.004936
26245000,0.0324,0.013523,0.002678,0.000431,0.004466
26246000,0.0324,0.013523,0.002678,0.000431,0.005171
26247000,0.0324,0.013523,0.002678,0.000431,0.003878
26248000,0.0324,0.013523,0.002678,0.000431,0.004936
26249000,0.0324,0.013523,0.002678,0.000431,0.004584
26250000,0.0324,0.013523,0.002678,0.000431,0.004113
26251000,0.0324,0.013523,0.002678,0.000431,0.004231
26252000,0.0324,0.013523,0.002678,0.000431,0.003996
26253000,0.0324,0.013523,0.002678,0.000431,0.004936
26254000,0.0324,0.013523,0.002678,0.000431,0.005289
26255000,0.0324,0.013523,0.002678,0.000431,0.004466
26256000,0.0324,0.013523,0.002678,0.000431,0.004113
26257000,0.0324,0.013523,0.002678,0.000431,0.005171
26258000,0.0324,0.013523,0.002678,0.000431,0.004936
26259000,0.0324,0.013523,0.002678,0.000431,0.004701
26260000,0.0324,0.013523,0.002678,0.000431,0.004113
26261000,0.0324,0.013523,0.002678,0.000431,0.003996
26262000,0.0324,0.013523,0.002678,0.000431,0.004701
26263000,0.0324,0.013523,0.002678,0.000431,0.004349
26264000,0.0324,0.013523,0.002678,0.000431,0.003761
26265000,0.0324,0.013523,0.002678,0.000431,0.004584
26266000,0.0324,0.013523,0.002678,0.000431,0.004466
26267000,0.0324,0.013523,0.002678,0.000431,0.004466
26268000,0.0324,0.013523,0.002678,0.000431,0.005289
26269000,0.0324,0.013523,0.002678,0.000431,0.004231
26270000,0.0324,0.013523,0.002678,0.000431,0.003761
26271000,0.0324,0.013523,0.002678,0.000431,0.004584
26272000,0.0324,0.013523,0.002678,0.000431,0.004349
26273000,0.0324,0.013523,0.002678,0.000431,0.004701
26274000,0.0324,0.013523,0.002678,0.000431,0.004349
26275000,0.0324,0.013523,0.002678,0.000431,0.004584
26276000,0.0324,0.013523,0.002678,0.000431,0.005054
26277000,0.0324,0.013523,0.002678,0.000431,0.004936
26278000,0.0324,0.013523,0.002678,0.000431,0.004113
26279000,0.0324,0.013523,0.002678,0.000431,0.004584
26280000,0.0324,0.013523,0.002678,0.000431,0.004231
26281000,0.0324,0.013523,0.002678,0.000431,0.004349
26282000,0.0324,0.013523,0.002678,0.000431,0.004584
26283000,0.0324,0.013523,0.002678,0.000431,0.004466
26284000,0.0324,0.013523,0.002678,0.000431,0.004231
26285000,0.0324,0.013523,0.002678,0.000431,0.004349
26286000,0.0324,0.013523,0.002678,0.000431,0.005054
26287000,0.0324,0.013523,0.002678,0.000431,0.004113
26288000,0.0324,0.013523,0.002678,0.000431,0.005171
26289000,0.0324,0.013523,0.002678,0.000431,0.004584
26290000,0.0324,0.013523,0.002678,0.000431,0.004701
26291000,0.0324,0.013523,0.002678,0.000431,0.004466
26292000,0.0324,0.013523,0.002678,0.000431,0.003996
26293000,0.0324,0.013523,0.002678,0.000431,0.004584
26294000,0.0324,0.013523,0.002678,0.000431,0.005171
26295000,0.0324,0.013523,0.002678,0.000431,0.004819
26296000,0.0324,0.013523,0.002678,0.000431,0.003996
26297000,0.0324,0.013523,0.002678,0.000431,0.004466
26298000,0.0324,0.013523,0.002678,0.000431,0.005054
26299000,0.0324,0.013523,0.002678,0.000431,0.004231
26300000,0.0324,0.013523,0.002678,0.000431,0.004113
26301000,0.0324,0.013523,0.002678,0.000431,0.004584
26302000,0.0324,0.013523,0.002678,0.000431,0.004113
26303000,0.0324,0.013523,0.002678,0.000431,0.004231
26304000,0.0324,0.013523,0.002678,0.000431,0.004466
26305000,0.0324,0.013523,0.002678,0.000431,0.004936
26306000,0.0324,0.013523,0.002678,0.000431,0.004701
26307000,0.0324,0.013523,0.002678,0.000431,0.004466
26308000,0.0324,0.013523,0.002678,0.000431,0.004466
26309000,0.0324,0.013523,0.002678,0.000431,0.005054
26310000,0.0324,0.013523,0.002678,0.000431,0.004584
26311000,0.0324,0.013523,0.002678,0.000431,0.004466
26312000,0.0324,0.013523,0.002678,0.000431,0.004349
26313000,0.0324,0.013523,0.002678,0.000431,0.004231
26314000,0.0324,0.013523,0.002678,0.000431,0.003996
26315000,0.0324,0.013523,0.002678,0.000431,0.004349
26316000,0.0324,0.013523,0.002678,0.000431,0.005054
26317000,0.0324,0.013523,0.002678,0.000431,0.004701
26318000,0.0324,0.013523,0.002678,0.000431,0.004819
26319000,0.0324,0.013523,0.002678,0.000431,0.004819
26320000,0.0324,0.013523,0.002678,0.000431,0.004113
26321000,0.0324,0.013523,0.002678,0.000431,0.004349
26322000,0.0324,0.013523,0.002678,0.000431,0.004466
26323000,0.0324,0.013523,0.002678,0.000431,0.004466
26324000,0.0324,0.013523,0.002678,0.000431,0.004231
26325000,0.0324,0.013523,0.002678,0.000431,0.004701
26326000,0.0324,0.013523,0.002678,0.000431,0.004819
26327000,0.0324,0.013523,0.002678,0.000431,0.003526
26328000,0.0324,0.013523,0.002678,0.000431,0.004231
26329000,0.0324,0.013523,0.002678,0.000431,0.003408
26330000,0.0324,0.013523,0.002678,0.000431,0.003291
26331000,0.0324,0.013523,0.002678,0.000431,0.003291
26332000,0.0324,0.013523,0.002678,0.000431,0.003173
26333000,0.0324,0.013523,0.002678,0.000431,0.003408
26334000,0.0324,0.013523,0.002678,0.000431,0.003761
26335000,0.0324,0.013523,0.002678,0.000431,0.003761
26336000,0.0324,0.013523,0.002678,0.000431,0.003643
26337000,0.0324,0.013523,0.002678,0.000431,0.003643
26338000,0.0324,0.013523,0.002678,0.000431,0.003761
26339000,0.0324,0.013523,0.002678,0.000431,0.003643
26340000,0.0324,0.013523,0.002678,0.000431,0.004466
26341000,0.0324,0.013523,0.002678,0.000431,0.003643
26342000,0.0324,0.013523,0.002678,0.000431,0.003878
26343000,0.0324,0.013523,0.002678,0.000431,0.003408
26344000,0.0324,0.013523,0.002678,0.000431,0.003761
26345000,0.0324,0.013523,0.002678,0.000431,0.003996
26346000,0.0324,0.013523,0.002678,0.000431,0.003291
26347000,0.0324,0.013523,0.002678,0.000431,0.003761
26348000,0.0324,0.013523,0.002678,0.000431,0.003408
26349000,0.0324,0.013523,0.002678,0.000431,0.003643
26350000,0.0324,0.013523,0.002678,0.000431,0.003643
26351000,0.0324,0.013523,0.002678,0.000431,0.003761
26352000,0.0324,0.013523,0.002678,0.000431,0.003291
26353000,0.0324,0.013523,0.002678,0.000431,0.003878
26354000,0.0324,0.013523,0.002678,0.000431,0.003643
26355000,0.0324,0.013523,0.002678,0.000431,0.004231
26356000,0.0324,0.013523,0.002678,0.000431,0.003761
26357000,0.0324,0.013523,0.002678,0.000431,0.003878
26358000,0.0324,0.013523,0.002678,0.000431,0.003173
26359000,0.0324,0.013523,0.002678,0.000431,0.003173
26360000,0.0324,0.013523,0.002678,0.000431,0.004231
26361000,0.0324,0.013523,0.002678,0.000431,0.003996
26362000,0.0324,0.013523,0.002678,0.000431,0.004113
26363000,0.0324,0.013523,0.002678,0.000431,0.003761
26364000,0.0324,0.013523,0.002678,0.000431,0.003643
26365000,0.0324,0.013523,0.002678,0.000431,0.003878
26366000,0.0324,0.013523,0.002678,0.000431,0.003291
26367000,0.0324,0.013523,0.002678,0.000431,0.004349
26368000,0.0324,0.013523,0.002678,0.000431,0.003526
26369000,0.0324,0.013523,0.002678,0.000431,0.003761
26370000,0.0324,0.013523,0.002678,0.000431,0.004349
26371000,0.0324,0.013523,0.002678,0.000431,0.003878
26372000,0.0324,0.013523,0.002678,0.000431,0.003761
26373000,0.0324,0.013523,0.002678,0.000431,0.004113
26374000,0.0324,0.013523,0.002678,0.000431,0.003526
26375000,0.0324,0.013523,0.002678,0.000431,0.003761
26376000,0.0324,0.013523,0.002678,0.000431,0.003878
26377000,0.0324,0.013523,0.002678,0.000431,0.004113
26378000,0.0324,0.013523,0.002678,0.000431,0.003761
26379000,0.0324,0.013523,0.002678,0.000431,0.003526
26380000,0.0324,0.013523,0.002678,0.000431,0.003291
26381000,0.0324,0.013523,0.002678,0.000431,0.003761
26382000,0.0324,0.013523,0.002678,0.000431,0.003526
26383000,0.0324,0.013523,0.002678,0.000431,0.003878
26384000,0.0324,0.013523,0.002678,0.000431,0.004231
26385000,0.0324,0.013523,0.002678,0.000431,0.003996
26386000,0.0324,0.013523,0.002678,0.000431,0.004701
26387000,0.0324,0.013523,0.002678,0.000431,0.003526
26388000,0.0324,0.013523,0.002678,0.000431,0.003643
26389000,0.0324,0.013523,0.002678,0.000431,0.003408
26390000,0.0324,0.013523,0.002678,0.000431,0.003408
26391000,0.0324,0.013523,0.002678,0.000431,0.004349
26392000,0.0324,0.013523,0.002678,0.000431,0.003761
26393000,0.0324,0.013523,0.002678,0.000431,0.003761
26394000,0.0324,0.013523,0.002678,0.000431,0.003173
26395000,0.0324,0.013523,0.002678,0.000431,0.004231
26396000,0.0324,0.013523,0.002678,0.000431,0.004466
26397000,0.0324,0.013523,0.002678,0.000431,0.003761
26398000,0.0324,0.013523,0.002678,0.000431,0.003643
26399000,0.0324,0.013523,0.002678,0.000431,0.003878
26400000,0.0324,0.013523,0.002678,0.000431,0.003878
26401000,0.0324,0.013523,0.002678,0.000431,0.004113
26402000,0.0324,0.013523,0.002678,0.000431,0.004231
26403000,0.0324,0.013523,0.002678,0.000431,0.004113
26404000,0.0324,0.013523,0.002678,0.000431,0.003408
26405000,0.0324,0.013523,0.002678,0.000431,0.003996
26406000,0.0324,0.013523,0.002678,0.000431,0.003878
26407000,0.0324,0.013523,0.002678,0.000431,0.003878
26408000,0.0324,0.013523,0.002678,0.000431,0.004113
26409000,0.0324,0.013523,0.002678,0.000431,0.003408
26410000,0.0324,0.013523,0.002678,0.000431,0.003408
26411000,0.0324,0.013523,0.002678,0.000431,0.003056
26412000,0.0324,0.013523,0.002678,0.000431,0.003643
26413000,0.0324,0.013523,0.002678,0.000431,0.003408
26414000,0.0324,0.013523,0.002678,0.000431,0.003643
26415000,0.0324,0.013523,0.002678,0.000431,0.003761
26416000,0.0324,0.013523,0.002678,0.000431,0.004466
26417000,0.0324,0.013523,0.002678,0.000431,0.004231
26418000,0.0324,0.013523,0.002678,0.000431,0.003761
26419000,0.0324,0.013523,0.002678,0.000431,0.003408
26420000,0.0324,0.013523,0.002678,0.000431,0.003056
26421000,0.0324,0.013523,0.002678,0.000431,0.003408
26422000,0.0324,0.013523,0.002678,0.000431,0.004466
26423000,0.0324,0.013523,0.002678,0.000431,0.004466
26424000,0.0324,0.013523,0.002678,0.000431,0.003408
26425000,0.0324,0.013523,0.002678,0.000431,0.003056
26426000,0.0324,0.013523,0.002678,0.000431,0.003878
26427000,0.0324,0.013523,0.002678,0.000431,0.003761
26428000,0.0324,0.013523,0.002678,0.000431,0.003761
26429000,0.0324,0.013523,0.002678,0.000431,0.003996
26430000,0.0324,0.013523,0.002678,0.000431,0.003408
26431000,0.0324,0.013523,0.002678,0.000431,0.003761
26432000,0.0324,0.013523,0.002678,0.000431,0.004231
26433000,0.0324,0.013523,0.002678,0.000431,0.004349
26434000,0.0324,0.013523,0.002678,0.000431,0.003526
26435000,0.0324,0.013523,0.002678,0.000431,0.003761
26436000,0.0324,0.013523,0.002678,0.000431,0.003643
26437000,0.0324,0.013523,0.002678,0.000431,0.003526
26438000,0.0324,0.013523,0.002678,0.000431,0.003173
26439000,0.0324,0.013523,0.002678,0.000431,0.003878
26440000,0.0324,0.013523,0.002678,0.000431,0.003878
26441000,0.0324,0.013523,0.002678,0.000431,0.003643
26442000,0.0324,0.013523,0.002678,0.000431,0.004113
26443000,0.0324,0.013523,0.002678,0.000431,0.003291
26444000,0.0324,0.013523,0.002678,0.000431,0.003643
26445000,0.0324,0.013523,0.002678,0.000431,0.003408
26446000,0.0324,0.013523,0.002678,0.000431,0.004349
26447000,0.0324,0.013523,0.002678,0.000431,0.003291
26448000,0.0324,0.013523,0.002678,0.000431,0.003761
26449000,0.0324,0.013523,0.002678,0.000431,0.003878
26450000,0.0324,0.013523,0.002678,0.000431,0.003408
26451000,0.0324,0.013523,0.002678,0.000431,0.003643
26452000,0.0324,0.013523,0.002678,0.000431,0.003878
26453000,0.0324,0.013523,0.002678,0.000431,0.003526
26454000,0.0324,0.013523,0.002678,0.000431,0.003878
26455000,0.0324,0.013523,0.002678,0.000431,0.003643
26456000,0.0324,0.013523,0.002678,0.000431,0.003761
26457000,0.0324,0.013523,0.002678,0.000431,0.003996
26458000,0.0324,0.013523,0.002678,0.000431,0.004231
26459000,0.0324,0.013523,0.002678,0.000431,0.003878
26460000,0.0324,0.013523,0.002678,0.000431,0.003526
26461000,0.0324,0.013523,0.002678,0.000431,0.004466
26462000,0.0324,0.013523,0.002678,0.000431,0.003878
26463000,0.0324,0.013523,0.002678,0.000431,0.003996
26464000,0.0324,0.013523,0.002678,0.000431,0.003056
26465000,0.0324,0.013523,0.002678,0.000431,0.003643
26466000,0.0324,0.013523,0.002678,0.000431,0.003643
26467000,0.0324,0.013523,0.002678,0.000431,0.004231
26468000,0.0324,0.013523,0.002678,0.000431,0.003761
26469000,0.0324,0.013523,0.002678,0.000431,0.003878
26470000,0.0324,0.013523,0.002678,0.000431,0.003878
26471000,0.0324,0.013523,0.002678,0.000431,0.004231
26472000,0.0324,0.013523,0.002678,0.000431,0.003996
26473000,0.0324,0.013523,0.002678,0.000431,0.004113
26474000,0.0324,0.013523,0.002678,0.000431,0.004231
26475000,0.0324,0.013523,0.002678,0.000431,0.003173
26476000,0.0324,0.013523,0.002678,0.000431,0.004936
26477000,0.0324,0.013523,0.002678,0.000431,0.004113
26478000,0.0324,0.013523,0.002678,0.000431,0.004349
26479000,0.0324,0.013523,0.002678,0.000431,0.004113
26480000,0.0324,0.013523,0.002678,0.000431,0.003878
26481000,0.0324,0.013523,0.002678,0.000431,0.003291
26482000,0.0324,0.013523,0.002678,0.000431,0.004231
26483000,0.0324,0.013523,0.002678,0.000431,0.003761
26484000,0.0324,0.013523,0.002678,0.000431,0.003996
26485000,0.0324,0.013523,0.002678,0.000431,0.003291
26486000,0.0324,0.013523,0.002678,0.000431,0.003643
26487000,0.0324,0.013523,0.002678,0.000431,0.003526
26488000,0.0324,0.013523,0.002678,0.000431,0.003761
26489000,0.0324,0.013523,0.002678,0.000431,0.003761
26490000,0.0324,0.013523,0.002678,0.000431,0.003056
26491000,0.0324,0.013523,0.002678,0.000431,0.004113
26492000,0.0324,0.013523,0.002678,0.000431,0.003173
26493000,0.0324,0.013523,0.002678,0.000431,0.004349
26494000,0.0324,0.013523,0.002678,0.000431,0.003643
26495000,0.0324,0.013523,0.002678,0.000431,0.003761
26496000,0.0324,0.013523,0.002678,0.000431,0.003408
26497000,0.0324,0.013523,0.002678,0.000431,0.004349
26498000,0.0324,0.013523,0.002678,0.000431,0.004113
26499000,0.0324,0.013523,0.002678,0.000431,0.003291
26500000,0.0324,0.013523,0.002678,0.000431,0.003408
26501000,0.0324,0.013523,0.002678,0.000431,0.003643
26502000,0.0324,0.013523,0.002678,0.000431,0.003996
26503000,0.0324,0.013523,0.002678,0.000431,0.003761
26504000,0.0324,0.013523,0.002678,0.000431,0.004466
26505000,0.0324,0.013523,0.002678,0.000431,0.003643
26506000,0.0324,0.013523,0.002678,0.000431,0.003056
26507000,0.0324,0.013523,0.002678,0.000431,0.003408
26508000,0.0324,0.013523,0.002678,0.000431,0.004113
26509000,0.0324,0.013523,0.002678,0.000431,0.003291
26510000,0.0324,0.013523,0.002678,0.000431,0.002703
26511000,0.0324,0.013523,0.002678,0.000431,0.003878
26512000,0.0324,0.013523,0.002678,0.000431,0.003526
26513000,0.0324,0.013523,0.002678,0.000431,0.003996
26514000,0.0324,0.013523,0.002678,0.000431,0.003056
26515000,0.0324,0.013523,0.002678,0.000431,0.004113
26516000,0.0324,0.013523,0.002678,0.000431,0.003878
26517000,0.0324,0.013523,0.002678,0.000431,0.003408
26518000,0.0324,0.013523,0.002678,0.000431,0.003643
26519000,0.0324,0.013523,0.002678,0.000431,0.004231
26520000,0.0324,0.013523,0.002678,0.000431,0.003408
26521000,0.0324,0.013523,0.002678,0.000431,0.004113
26522000,0.0324,0.013523,0.002678,0.000431,0.003408
26523000,0.0324,0.013523,0.002678,0.000431,0.004584
26524000,0.0324,0.013523,0.002678,0.000431,0.004231
26525000,0.0324,0.013523,0.002678,0.000431,0.004113
26526000,0.0324,0.013523,0.002678,0.000431,0.004113
26527000,0.0324,0.013523,0.002678,0.000431,0.004231
26528000,0.0324,0.013523,0.002678,0.000431,0.004231
26529000,0.0324,0.013523,0.002678,0.000431,0.003643
26530000,0.0324,0.013523,0.002678,0.000431,0.003643
26531000,0.0324,0.013523,0.002678,0.000431,0.003526
26532000,0.0324,0.013523,0.002678,0.000431,0.003878
26533000,0.0324,0.013523,0.002678,0.000431,0.003291
26534000,0.0324,0.013523,0.002678,0.000431,0.003996
26535000,0.0324,0.013523,0.002678,0.000431,0.003526
26536000,0.0324,0.013523,0.002678,0.000431,0.003761
26537000,0.0324,0.013523,0.002678,0.000431,0.004113
26538000,0.0324,0.013523,0.002678,0.000431,0.003526
26539000,0.0324,0.013523,0.002678,0.000431,0.003526
26540000,0.0324,0.013523,0.002678,0.000431,0.004113
26541000,0.0324,0.013523,0.002678,0.000431,0.003878
26542000,0.0324,0.013523,0.002678,0.000431,0.003761
26543000,0.0324,0.013523,0.002678,0.000431,0.004701
26544000,0.0324,0.013523,0.002678,0.000431,0.004113
26545000,0.0324,0.013523,0.002678,0.000431,0.003878
26546000,0.0324,0.013523,0.002678,0.000431,0.003761
26547000,0.0324,0.013523,0.002678,0.000431,0.002938
26548000,0.0324,0.013523,0.002678,0.000431,0.004231
26549000,0.0324,0.013523,0.002678,0.000431,0.003643
26550000,0.0324,0.013523,0.002678,0.000431,0.003643
26551000,0.0324,0.013523,0.002678,0.000431,0.003526
26552000,0.0324,0.013523,0.002678,0.000431,0.003643
26553000,0.0324,0.013523,0.002678,0.000431,0.004466
26554000,0.0324,0.013523,0.002678,0.000431,0.003526
26555000,0.0324,0.013523,0.002678,0.000431,0.003996
26556000,0.0324,0.013523,0.002678,0.000431,0.003173
26557000,0.0324,0.013523,0.002678,0.000431,0.003761
26558000,0.0324,0.013523,0.002678,0.000431,0.003878
26559000,0.0324,0.013523,0.002678,0.000431,0.003408
26560000,0.0324,0.013523,0.002678,0.000431,0.003173
26561000,0.0324,0.013523,0.002678,0.000431,0.003291
26562000,0.0324,0.013523,0.002678,0.000431,0.003761
26563000,0.0324,0.013523,0.002678,0.000431,0.002938
26564000,0.0324,0.013523,0.002678,0.000431,0.003408
26565000,0.0324,0.013523,0.002678,0.000431,0.002468
26566000,0.0324,0.013523,0.002678,0.000431,0.003056
26567000,0.0324,0.013523,0.002678,0.000431,0.002703
26568000,0.0324,0.013523,0.002678,0.000431,0.003408
26569000,0.0324,0.013523,0.002678,0.000431,0.003173
26570000,0.0324,0.013523,0.002678,0.000431,0.003056
26571000,0.0324,0.013523,0.002678,0.000431,0.003408
26572000,0.0324,0.013523,0.002678,0.000431,0.002703
26573000,0.0324,0.013523,0.002678,0.000431,0.003291
26574000,0.0324,0.013523,0.002678,0.000431,0.002821
26575000,0.0324,0.013523,0.002678,0.000431,0.003408
26576000,0.0324,0.013523,0.002678,0.000431,0.003173
26577000,0.0324,0.013523,0.002678,0.000431,0.002938
26578000,0.0324,0.013523,0.002678,0.000431,0.003173
26579000,0.0324,0.013523,0.002678,0.000431,0.003408
26580000,0.0324,0.013523,0.002678,0.000431,0.002938
26581000,0.0324,0.013523,0.002678,0.000431,0.003173
26582000,0.0324,0.013523,0.002678,0.000431,0.002938
26583000,0.0324,0.013523,0.002678,0.000431,0.003643
26584000,0.0324,0.013523,0.002678,0.000431,0.002821
26585000,0.0324,0.013523,0.002678,0.000431,0.002938
26586000,0.0324,0.013523,0.002678,0.000431,0.003526
26587000,0.0324,0.013523,0.002678,0.000431,0.003408
26588000,0.0324,0.013523,0.002678,0.000431,0.002703
26589000,0.0324,0.013523,0.002678,0.000431,0.003996
26590000,0.0324,0.013523,0.002678,0.000431,0.003056
26591000,0.0324,0.013523,0.002678,0.000431,0.003173
26592000,0.0324,0.013523,0.002678,0.000431,0.003761
26593000,0.0324,0.013523,0.002678,0.000431,0.003056
26594000,0.0324,0.013523,0.002678,0.000431,0.003526
26595000,0.0324,0.013523,0.002678,0.000431,0.002938
26596000,0.0324,0.013523,0.002678,0.000431,0.002938
26597000,0.0324,0.013523,0.002678,0.000431,0.002938
26598000,0.0324,0.013523,0.002678,0.000431,0.002468
26599000,0.0324,0.013523,0.002678,0.000431,0.002703
26600000,0.0324,0.013523,0.002678,0.000431,0.002938
26601000,0.0324,0.013523,0.002678,0.000431,0.002938
26602000,0.0324,0.013523,0.002678,0.000431,0.003408
26603000,0.0324,0.013523,0.002678,0.000431,0.003643
26604000,0.0324,0.013523,0.002678,0.000431,0.003408
26605000,0.0324,0.013523,0.002678,0.000431,0.002703
26606000,0.0324,0.013523,0.002678,0.000431,0.003056
26607000,0.0324,0.013523,0.002678,0.000431,0.002938
26608000,0.0324,0.013523,0.002678,0.000431,0.003173
26609000,0.0324,0.013523,0.002678,0.000431,0.002703
26610000,0.0324,0.013523,0.002678,0.000431,0.003291
26611000,0.0324,0.013523,0.002678,0.000431,0.002703
26612000,0.0324,0.013523,0.002678,0.000431,0.003761
26613000,0.0324,0.013523,0.002678,0.000431,0.003291
26614000,0.0324,0.013523,0.002678,0.000431,0.003408
26615000,0.0324,0.013523,0.002678,0.000431,0.003643
26616000,0.0324,0.013523,0.002678,0.000431,0.002938
26617000,0.0324,0.013523,0.002678,0.000431,0.003173
26618000,0.0324,0.013523,0.002678,0.000431,0.003408
26619000,0.0324,0.013523,0.002678,0.000431,0.003526
26620000,0.0324,0.013523,0.002678,0.000431,0.003173
26621000,0.0324,0.013523,0.002678,0.000431,0.002468
26622000,0.0324,0.013523,0.002678,0.000431,0.003056
26623000,0.0324,0.013523,0.002678,0.000431,0.003173
26624000,0.0324,0.013523,0.002678,0.000431,0.004113
26625000,0.0324,0.013523,0.002678,0.000431,0.002703
26626000,0.0324,0.013523,0.002678,0.000431,0.002821
26627000,0.0324,0.013523,0.002678,0.000431,0.002821
26628000,0.0324,0.013523,0.002678,0.000431,0.003761
26629000,0.0324,0.013523,0.002678,0.000431,0.002938
26630000,0.0324,0.013523,0.002678,0.000431,0.003056
26631000,0.0324,0.013523,0.002678,0.000431,0.002703
26632000,0.0324,0.013523,0.002678,0.000431,0.002821
26633000,0.0324,0.013523,0.002678,0.000431,0.003056
26634000,0.0324,0.013523,0.002678,0.000431,0.003291
26635000,0.0324,0.013523,0.002678,0.000431,0.003526
26636000,0.0324,0.013523,0.002678,0.000431,0.002586
26637000,0.0324,0.013523,0.002678,0.000431,0.002468
26638000,0.0324,0.013523,0.002678,0.000431,0.003291
26639000,0.0324,0.013523,0.002678,0.000431,0.003173
26640000,0.0324,0.013523,0.002678,0.000431,0.003643
26641000,0.0324,0.013523,0.002678,0.000431,0.002586
26642000,0.0324,0.013523,0.002678,0.000431,0.003173
26643000,0.0324,0.013523,0.002678,0.000431,0.003878
26644000,0.0324,0.013523,0.002678,0.000431,0.003761
26645000,0.0324,0.013523,0.002678,0.000431,0.002938
26646000,0.0324,0.013523,0.002678,0.000431,0.002586
26647000,0.0324,0.013523,0.002678,0.000431,0.003056
26648000,0.0324,0.013523,0.002678,0.000431,0.003526
26649000,0.0324,0.013523,0.002678,0.000431,0.003643
26650000,0.0324,0.013523,0.002678,0.000431,0.003056
26651000,0.0324,0.013523,0.002678,0.000431,0.003878
26652000,0.0324,0.013523,0.002678,0.000431,0.002703
26653000,0.0324,0.013523,0.002678,0.000431,0.003526
26654000,0.0324,0.013523,0.002678,0.000431,0.003408
26655000,0.0324,0.013523,0.002678,0.000431,0.003408
26656000,0.0324,0.013523,0.002678,0.000431,0.002821
26657000,0.0324,0.013523,0.002678,0.000431,0.002586
26658000,0.0324,0.013523,0.002678,0.000431,0.002821
26659000,0.0324,0.013523,0.002678,0.000431,0.003291
26660000,0.0324,0.013523,0.002678,0.000431,0.003291
26661000,0.0324,0.013523,0.002678,0.000431,0.003056
26662000,0.0324,0.013523,0.002678,0.000431,0.002703
26663000,0.0324,0.013523,0.002678,0.000431,0.003408
26664000,0.0324,0.013523,0.002678,0.000431,0.002821
26665000,0.0324,0.013523,0.002678,0.000431,0.003291
26666000,0.0324,0.013523,0.002678,0.000431,0.002938
26667000,0.0324,0.013523,0.002678,0.000431,0.002351
26668000,0.0324,0.013523,0.002678,0.000431,0.003173
26669000,0.0324,0.013523,0.002678,0.000431,0.002586
26670000,0.0324,0.013523,0.002678,0.000431,0.003408
26671000,0.0324,0.013523,0.002678,0.000431,0.003408
26672000,0.0324,0.013523,0.002678,0.000431,0.002351
26673000,0.0324,0.013523,0.002678,0.000431,0.003056
26674000,0.0324,0.013523,0.002678,0.000431,0.003643
26675000,0.0324,0.013523,0.002678,0.000431,0.002821
26676000,0.0324,0.013523,0.002678,0.000431,0.003291
26677000,0.0324,0.013523,0.002678,0.000431,0.002821
26678000,0.0324,0.013523,0.002678,0.000431,0.002821
26679000,0.0324,0.013523,0.002678,0.000431,0.002586
26680000,0.0324,0.013523,0.002678,0.000431,0.003408
26681000,0.0324,0.013523,0.002678,0.000431,0.002821
26682000,0.0324,0.013523,0.002678,0.000431,0.002703
26683000,0.0324,0.013523,0.002678,0.000431,0.002938
26684000,0.0324,0.013523,0.002678,0.000431,0.003526
26685000,0.0324,0.013523,0.002678,0.000431,0.002586
26686000,0.0324,0.013523,0.002678,0.000431,0.003408
26687000,0.0324,0.013523,0.002678,0.000431,0.003056
26688000,0.0324,0.013523,0.002678,0.000431,0.002586
26689000,0.0324,0.013523,0.002678,0.000431,0.002351
26690000,0.0324,0.013523,0.002678,0.000431,0.002821
26691000,0.0324,0.013523,0.002678,0.000431,0.003173
26692000,0.0324,0.013523,0.002678,0.000431,0.002703
26693000,0.0324,0.013523,0.002678,0.000431,0.002938
26694000,0.0324,0.013523,0.002678,0.000431,0.002938
26695000,0.0324,0.013523,0.002678,0.000431,0.003173
26696000,0.0324,0.013523,0.002678,0.000431,0.003173
26697000,0.0324,0.013523,0.002678,0.000431,0.003408
26698000,0.0324,0.013523,0.002678,0.000431,0.002821
26699000,0.0324,0.013523,0.002678,0.000431,0.003996
26700000,0.0324,0.013523,0.002678,0.000431,0.002938
26701000,0.0324,0.013523,0.002678,0.000431,0.003408
26702000,0.0324,0.013523,0.002678,0.000431,0.003408
26703000,0.0324,0.013523,0.002678,0.000431,0.003173
26704000,0.0324,0.013523,0.002678,0.000431,0.003408
26705000,0.0324,0.013523,0.002678,0.000431,0.003173
26706000,0.0324,0.013523,0.002678,0.000431,0.003408
26707000,0.0324,0.013523,0.002678,0.000431,0.003173
26708000,0.0324,0.013523,0.002678,0.000431,0.002351
26709000,0.0324,0.013523,0.002678,0.000431,0.003173
26710000,0.0324,0.013523,0.002678,0.000431,0.003291
26711000,0.0324,0.013523,0.002678,0.000431,0.002938
26712000,0.0324,0.013523,0.002678,0.000431,0.003291
26713000,0.0324,0.013523,0.002678,0.000431,0.003761
26714000,0.0324,0.013523,0.002678,0.000431,0.002938
26715000,0.0324,0.013523,0.002678,0.000431,0.003761
26716000,0.0324,0.013523,0.002678,0.000431,0.002938
26717000,0.0324,0.013523,0.002678,0.000431,0.002703
26718000,0.0324,0.013523,0.002678,0.000431,0.003408
26719000,0.0324,0.013523,0.002678,0.000431,0.002586
26720000,0.0324,0.013523,0.002678,0.000431,0.003173
26721000,0.0324,0.013523,0.002678,0.000431,0.003526
26722000,0.0324,0.013523,0.002678,0.000431,0.003056
26723000,0.0324,0.013523,0.002678,0.000431,0.002821
26724000,0.0324,0.013523,0.002678,0.000431,0.003173
26725000,0.0324,0.013523,0.002678,0.000431,0.003056
26726000,0.0324,0.013523,0.002678,0.000431,0.002821
26727000,0.0324,0.013523,0.002678,0.000431,0.003408
26728000,0.0324,0.013523,0.002678,0.000431,0.003056
26729000,0.0324,0.013523,0.002678,0.000431,0.002586
26730000,0.0324,0.013523,0.002678,0.000431,0.003056
26731000,0.0324,0.013523,0.002678,0.000431,0.002938
26732000,0.0324,0.013523,0.002678,0.000431,0.003056
26733000,0.0324,0.013523,0.002678,0.000431,0.002938
26734000,0.0324,0.013523,0.002678,0.000431,0.003173
26735000,0.0324,0.013523,0.002678,0.000431,0.003291
26736000,0.0324,0.013523,0.002678,0.000431,0.003408
26737000,0.0324,0.013523,0.002678,0.000431,0.003056
26738000,0.0324,0.013523,0.002678,0.000431,0.003056
26739000,0.0324,0.013523,0.002678,0.000431,0.003056
26740000,0.0324,0.013523,0.002678,0.000431,0.003526
26741000,0.0324,0.013523,0.002678,0.000431,0.003173
26742000,0.0324,0.013523,0.002678,0.000431,0.003526
26743000,0.0324,0.013523,0.002678,0.000431,0.002586
26744000,0.0324,0.013523,0.002678,0.000431,0.003291
26745000,0.0324,0.013523,0.002678,0.000431,0.003526
26746000,0.0324,0.013523,0.002678,0.000431,0.002586
26747000,0.0324,0.013523,0.002678,0.000431,0.003173
26748000,0.0324,0.013523,0.002678,0.000431,0.003526
26749000,0.0324,0.013523,0.002678,0.000431,0.002938
26750000,0.0324,0.013523,0.002678,0.000431,0.003291
26751000,0.0324,0.013523,0.002678,0.000431,0.003408
26752000,0.0324,0.013523,0.002678,0.000431,0.003173
26753000,0.0324,0.013523,0.002678,0.000431,0.003291
26754000,0.0324,0.013523,0.002678,0.000431,0.002116
26755000,0.0324,0.013523,0.002678,0.000431,0.003408
26756000,0.0324,0.013523,0.002678,0.000431,0.002468
26757000,0.0324,0.013523,0.002678,0.000431,0.003056
26758000,0.0324,0.013523,0.002678,0.000431,0.003173
26759000,0.0324,0.013523,0.002678,0.000431,0.002821
26760000,0.0324,0.013523,0.002678,0.000431,0.002233
26761000,0.0324,0.013523,0.002678,0.000431,0.002703
26762000,0.0324,0.013523,0.002678,0.000431,0.002703
26763000,0.0324,0.013523,0.002678,0.000431,0.002821
26764000,0.0324,0.013523,0.002678,0.000431,0.002586
26765000,0.0324,0.013523,0.002678,0.000431,0.002468
26766000,0.0324,0.013523,0.002678,0.000431,0.002586
26767000,0.0324,0.013523,0.002678,0.000431,0.003291
26768000,0.0324,0.013523,0.002678,0.000431,0.002821
26769000,0.0324,0.013523,0.002678,0.000431,0.002703
26770000,0.0324,0.013523,0.002678,0.000431,0.002351
26771000,0.0324,0.013523,0.002678,0.000431,0.002586
26772000,0.0324,0.013523,0.002678,0.000431,0.002821
26773000,0.0324,0.013523,0.002678,0.000431,0.003291
26774000,0.0324,0.013523,0.002678,0.000431,0.002586
26775000,0.0324,0.013523,0.002678,0.000431,0.003056
26776000,0.0324,0.013523,0.002678,0.000431,0.003291
26777000,0.0324,0.013523,0.002678,0.000431,0.003056
26778000,0.0324,0.013523,0.002678,0.000431,0.003526
26779000,0.0324,0.013523,0.002678,0.000431,0.002586
26780000,0.0324,0.013523,0.002678,0.000431,0.002586
26781000,0.0324,0.013523,0.002678,0.000431,0.002233
26782000,0.0324,0.013523,0.002678,0.000431,0.003291
26783000,0.0324,0.013523,0.002678,0.000431,0.002351
26784000,0.0324,0.013523,0.002678,0.000431,0.002703
26785000,0.0324,0.013523,0.002678,0.000431,0.003056
26786000,0.0324,0.013523,0.002678,0.000431,0.003173
26787000,0.0324,0.013523,0.002678,0.000431,0.002703
26788000,0.0324,0.013523,0.002678,0.000431,0.003056
26789000,0.0324,0.013523,0.002678,0.000431,0.002703
26790000,0.0324,0.013523,0.002678,0.000431,0.002586
26791000,0.0324,0.013523,0.002678,0.000431,0.003056
26792000,0.0324,0.013523,0.002678,0.000431,0.003408
26793000,0.0324,0.013523,0.002678,0.000431,0.003291
26794000,0.0324,0.013523,0.002678,0.000431,0.003056
26795000,0.0324,0.013523,0.002678,0.000431,0.002586
26796000,0.0324,0.013523,0.002678,0.000431,0.002586
26797000,0.0324,0.013523,0.002678,0.000431,0.003056
26798000,0.0324,0.013523,0.002678,0.000431,0.002821
26799000,0.0324,0.013523,0.002678,0.000431,0.003173
26800000,0.0324,0.013523,0.002678,0.000431,0.002821
26801000,0.0324,0.013523,0.002678,0.000431,0.003408
26802000,0.0324,0.013523,0.002678,0.000431,0.002468
26803000,0.0324,0.013523,0.002678,0.000431,0.003056
26804000,0.0324,0.013523,0.002678,0.000431,0.003643
26805000,0.0324,0.013523,0.002678,0.000431,0.002938
26806000,0.0324,0.013523,0.002678,0.000431,0.002703
26807000,0.0324,0.013523,0.002678,0.000431,0.002938
26808000,0.0324,0.013523,0.002678,0.000431,0.003526
26809000,0.0324,0.013523,0.002678,0.000431,0.003056
26810000,0.0324,0.013523,0.002678,0.000431,0.002821
26811000,0.0324,0.013523,0.002678,0.000431,0.003056
26812000,0.0324,0.013523,0.002678,0.000431,0.003173
26813000,0.0324,0.013523,0.002678,0.000431,0.002468
26814000,0.0324,0.013523,0.002678,0.000431,0.003761
26815000,0.0324,0.013523,0.002678,0.000431,0.002586
26816000,0.0324,0.013523,0.002678,0.000431,0.003408
26817000,0.0324,0.013523,0.002678,0.000431,0.002703
26818000,0.0324,0.013523,0.002678,0.000431,0.002586
26819000,0.0324,0.013523,0.002678,0.000431,0.002703
26820000,0.0324,0.013523,0.002678,0.000431,0.003291
26821000,0.0324,0.013523,0.002678,0.000431,0.002703
26822000,0.0324,0.013523,0.002678,0.000431,0.002821
26823000,0.0324,0.013523,0.002678,0.000431,0.003526
26824000,0.0324,0.013523,0.002678,0.000431,0.002938
26825000,0.0324,0.013523,0.002678,0.000431,0.002703
26826000,0.0324,0.013523,0.002678,0.000431,0.002703
26827000,0.0324,0.013523,0.002678,0.000431,0.002468
26828000,0.0324,0.013523,0.002678,0.000431,0.002703
26829000,0.0324,0.013523,0.002678,0.000431,0.002821
26830000,0.0324,0.013523,0.002678,0.000431,0.002821
26831000,0.0324,0.013523,0.002678,0.000431,0.002586
26832000,0.0324,0.013523,0.002678,0.000431,0.002821
26833000,0.0324,0.013523,0.002678,0.000431,0.002586
26834000,0.0324,0.013523,0.002678,0.000431,0.002351
26835000,0.0324,0.013523,0.002678,0.000431,0.002586
26836000,0.0324,0.013523,0.002678,0.000431,0.003056
26837000,0.0324,0.013523,0.002678,0.000431,0.002351
26838000,0.0324,0.013523,0.002678,0.000431,0.003291
26839000,0.0324,0.013523,0.002678,0.000431,0.003056
26840000,0.0324,0.013523,0.002678,0.000431,0.003056
26841000,0.0324,0.013523,0.002678,0.000431,0.002938
26842000,0.0324,0.013523,0.002678,0.000431,0.002938
26843000,0.0324,0.013523,0.002678,0.000431,0.003408
26844000,0.0324,0.013523,0.002678,0.000431,0.002233
26845000,0.0324,0.013523,0.002678,0.000431,0.002586
26846000,0.0324,0.013523,0.002678,0.000431,0.002586
26847000,0.0324,0.013523,0.002678,0.000431,0.002703
26848000,0.0324,0.013523,0.002678,0.000431,0.003056
26849000,0.0324,0.013523,0.002678,0.000431,0.003056
26850000,0.0324,0.013523,0.002678,0.000431,0.003056
26851000,0.0324,0.013523,0.002678,0.000431,0.003408
26852000,0.0324,0.013523,0.002678,0.000431,0.003056
26853000,0.0324,0.013523,0.002678,0.000431,0.002703
26854000,0.0324,0.013523,0.002678,0.000431,0.002821
26855000,0.0324,0.013523,0.002678,0.000431,0.002938
26856000,0.0324,0.013523,0.002678,0.000431,0.002938
26857000,0.0324,0.013523,0.002678,0.000431,0.003056
26858000,0.0324,0.013523,0.002678,0.000431,0.003291
26859000,0.0324,0.013523,0.002678,0.000431,0.002821
26860000,0.0324,0.013523,0.002678,0.000431,0.003056
26861000,0.0324,0.013523,0.002678,0.000431,0.002468
26862000,0.0324,0.013523,0.002678,0.000431,0.002586
26863000,0.0324,0.013523,0.002678,0.000431,0.002821
26864000,0.0324,0.013523,0.002678,0.000431,0.002468
26865000,0.0324,0.013523,0.002678,0.000431,0.002116
26866000,0.0324,0.013523,0.002678,0.000431,0.002351
26867000,0.0324,0.013523,0.002678,0.000431,0.002233
26868000,0.0324,0.013523,0.002678,0.000431,0.002821
26869000,0.0324,0.013523,0.002678,0.000431,0.001880
26870000,0.0324,0.013523,0.002678,0.000431,0.002938
26871000,0.0324,0.013523,0.002678,0.000431,0.002468
26872000,0.0324,0.013523,0.002678,0.000431,0.002703
26873000,0.0324,0.013523,0.002678,0.000431,0.002586
26874000,0.0324,0.013523,0.002678,0.000431,0.002821
26875000,0.0324,0.013523,0.002678,0.000431,0.002468
26876000,0.0324,0.013523,0.002678,0.000431,0.002703
26877000,0.0324,0.013523,0.002678,0.000431,0.002116
26878000,0.0324,0.013523,0.002678,0.000431,0.001998
26879000,0.0324,0.013523,0.002678,0.000431,0.003056
26880000,0.0324,0.013523,0.002678,0.000431,0.003056
26881000,0.0324,0.013523,0.002678,0.000431,0.002351
26882000,0.0324,0.013523,0.002678,0.000431,0.002351
26883000,0.0324,0.013523,0.002678,0.000431,0.002351
26884000,0.0324,0.013523,0.002678,0.000431,0.002468
26885000,0.0324,0.013523,0.002678,0.000431,0.002821
26886000,0.0324,0.013523,0.002678,0.000431,0.002468
26887000,0.0324,0.013523,0.002678,0.000431,0.002233
26888000,0.0324,0.013523,0.002678,0.000431,0.002233
26889000,0.0324,0.013523,0.002678,0.000431,0.002586
26890000,0.0324,0.013523,0.002678,0.000431,0.001880
26891000,0.0324,0.013523,0.002678,0.000431,0.001528
26892000,0.0324,0.013523,0.002678,0.000431,0.001645
26893000,0.0324,0.013523,0.002678,0.000431,0.001763
26894000,0.0324,0.013523,0.002678,0.000431,0.001410
26895000,0.0324,0.013523,0.002678,0.000431,0.001645
26896000,0.0324,0.013523,0.002678,0.000431,0.001998
26897000,0.0324,0.013523,0.002678,0.000431,0.001645
26898000,0.0324,0.013523,0.002678,0.000431,0.001645
26899000,0.0324,0.013523,0.002678,0.000431,0.001645
26900000,0.0324,0.013523,0.002678,0.000431,0.001880
26901000,0.0324,0.013523,0.002678,0.000431,0.002116
26902000,0.0324,0.013523,0.002678,0.000431,0.001998
26903000,0.0324,0.013523,0.002678,0.000431,0.002116
26904000,0.0324,0.013523,0.002678,0.000431,0.001998
26905000,0.0324,0.013523,0.002678,0.000431,0.001528
26906000,0.0324,0.013523,0.002678,0.000431,0.002116
26907000,0.0324,0.013523,0.002678,0.000431,0.002233
26908000,0.0324,0.013523,0.002678,0.000431,0.001763
26909000,0.0324,0.013523,0.002678,0.000431,0.001880
26910000,0.0324,0.013523,0.002678,0.000431,0.001880
26911000,0.0324,0.013523,0.002678,0.000431,0.002233
26912000,0.0324,0.013523,0.002678,0.000431,0.002351
26913000,0.0324,0.013523,0.002678,0.000431,0.001763
26914000,0.0324,0.013523,0.002678,0.000431,0.001645
26915000,0.0324,0.013523,0.002678,0.000431,0.002116
26916000,0.0324,0.013523,0.002678,0.000431,0.002116
26917000,0.0324,0.013523,0.002678,0.000431,0.001998
26918000,0.0324,0.013523,0.002678,0.000431,0.001645
26919000,0.0324,0.013523,0.002678,0.000431,0.001528
26920000,0.0324,0.013523,0.002678,0.000431,0.002351
26921000,0.0324,0.013523,0.002678,0.000431,0.002116
26922000,0.0324,0.013523,0.002678,0.000431,0.001998
26923000,0.0324,0.013523,0.002678,0.000431,0.001998
26924000,0.0324,0.013523,0.002678,0.000431,0.001880
26925000,0.0324,0.013523,0.002678,0.000431,0.002233
26926000,0.0324,0.013523,0.002678,0.000431,0.002351
26927000,0.0324,0.013523,0.002678,0.000431,0.001880
26928000,0.0324,0.013523,0.002678,0.000431,0.001998
26929000,0.0324,0.013523,0.002678,0.000431,0.001763
26930000,0.0324,0.013523,0.002678,0.000431,0.001763
26931000,0.0324,0.013523,0.002678,0.000431,0.001998
26932000,0.0324,0.013523,0.002678,0.000431,0.001645
26933000,0.0324,0.013523,0.002678,0.000431,0.001763
26934000,0.0324,0.013523,0.002678,0.000431,0.001880
26935000,0.0324,0.013523,0.002678,0.000431,0.002351
26936000,0.0324,0.013523,0.002678,0.000431,0.001998
26937000,0.0324,0.013523,0.002678,0.000431,0.002233
26938000,0.0324,0.013523,0.002678,0.000431,0.001528
26939000,0.0324,0.013523,0.002678,0.000431,0.002233
26940000,0.0324,0.013523,0.002678,0.000431,0.001998
26941000,0.0324,0.013523,0.002678,0.000431,0.001998
26942000,0.0324,0.013523,0.002678,0.000431,0.001998
26943000,0.0324,0.013523,0.002678,0.000431,0.002351
26944000,0.0324,0.013523,0.002678,0.000431,0.001645
26945000,0.0324,0.013523,0.002678,0.000431,0.001410
26946000,0.0324,0.013523,0.002678,0.000431,0.002116
26947000,0.0324,0.013523,0.002678,0.000431,0.001880
26948000,0.0324,0.013523,0.002678,0.000431,0.001645
26949000,0.0324,0.013523,0.002678,0.000431,0.002116
26950000,0.0324,0.013523,0.002678,0.000431,0.001880
26951000,0.0324,0.013523,0.002678,0.000431,0.001645
26952000,0.0324,0.013523,0.002678,0.000431,0.001880
26953000,0.0324,0.013523,0.002678,0.000431,0.002351
26954000,0.0324,0.013523,0.002678,0.000431,0.001763
26955000,0.0324,0.013523,0.002678,0.000431,0.001880
26956000,0.0324,0.013523,0.002678,0.000431,0.001880
26957000,0.0324,0.013523,0.002678,0.000431,0.002233
26958000,0.0324,0.013523,0.002678,0.000431,0.002116
26959000,0.0324,0.013523,0.002678,0.000431,0.001880
26960000,0.0324,0.013523,0.002678,0.000431,0.001880
26961000,0.0324,0.013523,0.002678,0.000431,0.002233
26962000,0.0324,0.013523,0.002678,0.000431,0.001880
26963000,0.0324,0.013523,0.002678,0.000431,0.002351
26964000,0.0324,0.013523,0.002678,0.000431,0.001998
26965000,0.0324,0.013523,0.002678,0.000431,0.001763
26966000,0.0324,0.013523,0.002678,0.000431,0.002116
26967000,0.0324,0.013523,0.002678,0.000431,0.002233
26968000,0.0324,0.013523,0.002678,0.000431,0.001763
26969000,0.0324,0.013523,0.002678,0.000431,0.001763
26970000,0.0324,0.013523,0.002678,0.000431,0.001763
26971000,0.0324,0.013523,0.002678,0.000431,0.001528
26972000,0.0324,0.013523,0.002678,0.000431,0.002116
26973000,0.0324,0.013523,0.002678,0.000431,0.002233
26974000,0.0324,0.013523,0.002678,0.000431,0.001880
26975000,0.0324,0.013523,0.002678,0.000431,0.001998
26976000,0.0324,0.013523,0.002678,0.000431,0.001763
26977000,0.0324,0.013523,0.002678,0.000431,0.002586
26978000,0.0324,0.013523,0.002678,0.000431,0.001645
26979000,0.0324,0.013523,0.002678,0.000431,0.002116
26980000,0.0324,0.013523,0.002678,0.000431,0.001763
26981000,0.0324,0.013523,0.002678,0.000431,0.002233
26982000,0.0324,0.013523,0.002678,0.000431,0.002116
26983000,0.0324,0.013523,0.002678,0.000431,0.002586
26984000,0.0324,0.013523,0.002678,0.000431,0.001998
26985000,0.0324,0.013523,0.002678,0.000431,0.001763
26986000,0.0324,0.013523,0.002678,0.000431,0.001880
26987000,0.0324,0.013523,0.002678,0.000431,0.002233
26988000,0.0324,0.013523,0.002678,0.000431,0.001998
26989000,0.0324,0.013523,0.002678,0.000431,0.002116
26990000,0.0324,0.013523,0.002678,0.000431,0.001763
26991000,0.0324,0.013523,0.002678,0.000431,0.001763
26992000,0.0324,0.013523,0.002678,0.000431,0.001763
26993000,0.0324,0.013523,0.002678,0.000431,0.001998
26994000,0.0324,0.013523,0.002678,0.000431,0.001763
26995000,0.0324,0.013523,0.002678,0.000431,0.001763
26996000,0.0324,0.013523,0.002678,0.000431,0.002116
26997000,0.0324,0.013523,0.002678,0.000431,0.001880
26998000,0.0324,0.013523,0.002678,0.000431,0.001998
26999000,0.0324,0.013523,0.002678,0.000431,0.001763
