Cycle,Area(mm^2),PeakDynamic(W),SubthresholdLeakage(W),GateLeakage(W),RunTimeDynamic(W)
4000000,0.0324,0.013523,0.002678,0.000431,0.010813
4001000,0.0324,0.013523,0.002678,0.000431,0.010813
4002000,0.0324,0.013523,0.002678,0.000431,0.010695
4003000,0.0324,0.013523,0.002678,0.000431,0.010695
4004000,0.0324,0.013523,0.002678,0.000431,0.010813
4005000,0.0324,0.013523,0.002678,0.000431,0.011048
4006000,0.0324,0.013523,0.002678,0.000431,0.010460
4007000,0.0324,0.013523,0.002678,0.000431,0.011283
4008000,0.0324,0.013523,0.002678,0.000431,0.010460
4009000,0.0324,0.013523,0.002678,0.000431,0.011283
4010000,0.0324,0.013523,0.002678,0.000431,0.010342
4011000,0.0324,0.013523,0.002678,0.000431,0.011048
4012000,0.0324,0.013523,0.002678,0.000431,0.010930
4013000,0.0324,0.013523,0.002678,0.000431,0.010225
4014000,0.0324,0.013523,0.002678,0.000431,0.011048
4015000,0.0324,0.013523,0.002678,0.000431,0.010460
4016000,0.0324,0.013523,0.002678,0.000431,0.010695
4017000,0.0324,0.013523,0.002678,0.000431,0.010695
4018000,0.0324,0.013523,0.002678,0.000431,0.011400
4019000,0.0324,0.013523,0.002678,0.000431,0.010460
4020000,0.0324,0.013523,0.002678,0.000431,0.010460
4021000,0.0324,0.013523,0.002678,0.000431,0.010813
4022000,0.0324,0.013523,0.002678,0.000431,0.010460
4023000,0.0324,0.013523,0.002678,0.000431,0.010930
4024000,0.0324,0.013523,0.002678,0.000431,0.010107
4025000,0.0324,0.013523,0.002678,0.000431,0.010107
4026000,0.0324,0.013523,0.002678,0.000431,0.010695
4027000,0.0324,0.013523,0.002678,0.000431,0.010578
4028000,0.0324,0.013523,0.002678,0.000431,0.010342
4029000,0.0324,0.013523,0.002678,0.000431,0.011165
4030000,0.0324,0.013523,0.002678,0.000431,0.010460
4031000,0.0324,0.013523,0.002678,0.000431,0.010225
4032000,0.0324,0.013523,0.002678,0.000431,0.010930
4033000,0.0324,0.013523,0.002678,0.000431,0.011518
4034000,0.0324,0.013523,0.002678,0.000431,0.010813
4035000,0.0324,0.013523,0.002678,0.000431,0.010930
4036000,0.0324,0.013523,0.002678,0.000431,0.011283
4037000,0.0324,0.013523,0.002678,0.000431,0.010578
4038000,0.0324,0.013523,0.002678,0.000431,0.010813
4039000,0.0324,0.013523,0.002678,0.000431,0.010225
4040000,0.0324,0.013523,0.002678,0.000431,0.011283
4041000,0.0324,0.013523,0.002678,0.000431,0.010107
4042000,0.0324,0.013523,0.002678,0.000431,0.010813
4043000,0.0324,0.013523,0.002678,0.000431,0.010930
4044000,0.0324,0.013523,0.002678,0.000431,0.010813
4045000,0.0324,0.013523,0.002678,0.000431,0.009872
4046000,0.0324,0.013523,0.002678,0.000431,0.010578
4047000,0.0324,0.013523,0.002678,0.000431,0.009637
4048000,0.0324,0.013523,0.002678,0.000431,0.010107
4049000,0.0324,0.013523,0.002678,0.000431,0.010342
4050000,0.0324,0.013523,0.002678,0.000431,0.009402
4051000,0.0324,0.013523,0.002678,0.000431,0.010225
4052000,0.0324,0.013523,0.002678,0.000431,0.009990
4053000,0.0324,0.013523,0.002678,0.000431,0.009872
4054000,0.0324,0.013523,0.002678,0.000431,0.010107
4055000,0.0324,0.013523,0.002678,0.000431,0.009990
4056000,0.0324,0.013523,0.002678,0.000431,0.010460
4057000,0.0324,0.013523,0.002678,0.000431,0.009872
4058000,0.0324,0.013523,0.002678,0.000431,0.010107
4059000,0.0324,0.013523,0.002678,0.000431,0.009872
4060000,0.0324,0.013523,0.002678,0.000431,0.009637
4061000,0.0324,0.013523,0.002678,0.000431,0.009520
4062000,0.0324,0.013523,0.002678,0.000431,0.009402
4063000,0.0324,0.013523,0.002678,0.000431,0.009050
4064000,0.0324,0.013523,0.002678,0.000431,0.008932
4065000,0.0324,0.013523,0.002678,0.000431,0.009755
4066000,0.0324,0.013523,0.002678,0.000431,0.009402
4067000,0.0324,0.013523,0.002678,0.000431,0.009167
4068000,0.0324,0.013523,0.002678,0.000431,0.009167
4069000,0.0324,0.013523,0.002678,0.000431,0.009285
4070000,0.0324,0.013523,0.002678,0.000431,0.009402
4071000,0.0324,0.013523,0.002678,0.000431,0.008697
4072000,0.0324,0.013523,0.002678,0.000431,0.008462
4073000,0.0324,0.013523,0.002678,0.000431,0.008345
4074000,0.0324,0.013523,0.002678,0.000431,0.008580
4075000,0.0324,0.013523,0.002678,0.000431,0.008462
4076000,0.0324,0.013523,0.002678,0.000431,0.008697
4077000,0.0324,0.013523,0.002678,0.000431,0.008580
4078000,0.0324,0.013523,0.002678,0.000431,0.008462
4079000,0.0324,0.013523,0.002678,0.000431,0.008345
4080000,0.0324,0.013523,0.002678,0.000431,0.009050
4081000,0.0324,0.013523,0.002678,0.000431,0.008462
4082000,0.0324,0.013523,0.002678,0.000431,0.008932
4083000,0.0324,0.013523,0.002678,0.000431,0.008580
4084000,0.0324,0.013523,0.002678,0.000431,0.008697
4085000,0.0324,0.013523,0.002678,0.000431,0.008580
4086000,0.0324,0.013523,0.002678,0.000431,0.007757
4087000,0.0324,0.013523,0.002678,0.000431,0.007874
4088000,0.0324,0.013523,0.002678,0.000431,0.007522
4089000,0.0324,0.013523,0.002678,0.000431,0.007639
4090000,0.0324,0.013523,0.002678,0.000431,0.007169
4091000,0.0324,0.013523,0.002678,0.000431,0.008109
4092000,0.0324,0.013523,0.002678,0.000431,0.008109
4093000,0.0324,0.013523,0.002678,0.000431,0.007639
4094000,0.0324,0.013523,0.002678,0.000431,0.008109
4095000,0.0324,0.013523,0.002678,0.000431,0.007639
4096000,0.0324,0.013523,0.002678,0.000431,0.007639
4097000,0.0324,0.013523,0.002678,0.000431,0.008462
4098000,0.0324,0.013523,0.002678,0.000431,0.007757
4099000,0.0324,0.013523,0.002678,0.000431,0.008227
4100000,0.0324,0.013523,0.002678,0.000431,0.007757
4101000,0.0324,0.013523,0.002678,0.000431,0.008462
4102000,0.0324,0.013523,0.002678,0.000431,0.007874
4103000,0.0324,0.013523,0.002678,0.000431,0.008109
4104000,0.0324,0.013523,0.002678,0.000431,0.007992
4105000,0.0324,0.013523,0.002678,0.000431,0.007992
4106000,0.0324,0.013523,0.002678,0.000431,0.008227
4107000,0.0324,0.013523,0.002678,0.000431,0.007639
4108000,0.0324,0.013523,0.002678,0.000431,0.007992
4109000,0.0324,0.013523,0.002678,0.000431,0.007992
4110000,0.0324,0.013523,0.002678,0.000431,0.007287
4111000,0.0324,0.013523,0.002678,0.000431,0.008227
4112000,0.0324,0.013523,0.002678,0.000431,0.007874
4113000,0.0324,0.013523,0.002678,0.000431,0.007992
4114000,0.0324,0.013523,0.002678,0.000431,0.007287
4115000,0.0324,0.013523,0.002678,0.000431,0.007992
4116000,0.0324,0.013523,0.002678,0.000431,0.008345
4117000,0.0324,0.013523,0.002678,0.000431,0.007639
4118000,0.0324,0.013523,0.002678,0.000431,0.008462
4119000,0.0324,0.013523,0.002678,0.000431,0.007639
4120000,0.0324,0.013523,0.002678,0.000431,0.007874
4121000,0.0324,0.013523,0.002678,0.000431,0.008345
4122000,0.0324,0.013523,0.002678,0.000431,0.007874
4123000,0.0324,0.013523,0.002678,0.000431,0.008109
4124000,0.0324,0.013523,0.002678,0.000431,0.008109
4125000,0.0324,0.013523,0.002678,0.000431,0.007992
4126000,0.0324,0.013523,0.002678,0.000431,0.008345
4127000,0.0324,0.013523,0.002678,0.000431,0.007639
4128000,0.0324,0.013523,0.002678,0.000431,0.007992
4129000,0.0324,0.013523,0.002678,0.000431,0.008227
4130000,0.0324,0.013523,0.002678,0.000431,0.008345
4131000,0.0324,0.013523,0.002678,0.000431,0.007874
4132000,0.0324,0.013523,0.002678,0.000431,0.007992
4133000,0.0324,0.013523,0.002678,0.000431,0.007757
4134000,0.0324,0.013523,0.002678,0.000431,0.008227
4135000,0.0324,0.013523,0.002678,0.000431,0.007639
4136000,0.0324,0.013523,0.002678,0.000431,0.008109
4137000,0.0324,0.013523,0.002678,0.000431,0.007992
4138000,0.0324,0.013523,0.002678,0.000431,0.007992
4139000,0.0324,0.013523,0.002678,0.000431,0.008345
4140000,0.0324,0.013523,0.002678,0.000431,0.007757
4141000,0.0324,0.013523,0.002678,0.000431,0.008227
4142000,0.0324,0.013523,0.002678,0.000431,0.007757
4143000,0.0324,0.013523,0.002678,0.000431,0.007992
4144000,0.0324,0.013523,0.002678,0.000431,0.007874
4145000,0.0324,0.013523,0.002678,0.000431,0.008109
4146000,0.0324,0.013523,0.002678,0.000431,0.008227
4147000,0.0324,0.013523,0.002678,0.000431,0.007522
4148000,0.0324,0.013523,0.002678,0.000431,0.007052
4149000,0.0324,0.013523,0.002678,0.000431,0.007639
4150000,0.0324,0.013523,0.002678,0.000431,0.007287
4151000,0.0324,0.013523,0.002678,0.000431,0.007639
4152000,0.0324,0.013523,0.002678,0.000431,0.007287
4153000,0.0324,0.013523,0.002678,0.000431,0.007052
4154000,0.0324,0.013523,0.002678,0.000431,0.007992
4155000,0.0324,0.013523,0.002678,0.000431,0.006817
4156000,0.0324,0.013523,0.002678,0.000431,0.007757
4157000,0.0324,0.013523,0.002678,0.000431,0.007404
4158000,0.0324,0.013523,0.002678,0.000431,0.007052
4159000,0.0324,0.013523,0.002678,0.000431,0.007052
4160000,0.0324,0.013523,0.002678,0.000431,0.007639
4161000,0.0324,0.013523,0.002678,0.000431,0.007522
4162000,0.0324,0.013523,0.002678,0.000431,0.007404
4163000,0.0324,0.013523,0.002678,0.000431,0.006934
4164000,0.0324,0.013523,0.002678,0.000431,0.007287
4165000,0.0324,0.013523,0.002678,0.000431,0.007404
4166000,0.0324,0.013523,0.002678,0.000431,0.007169
4167000,0.0324,0.013523,0.002678,0.000431,0.007522
4168000,0.0324,0.013523,0.002678,0.000431,0.007522
4169000,0.0324,0.013523,0.002678,0.000431,0.007169
4170000,0.0324,0.013523,0.002678,0.000431,0.007874
4171000,0.0324,0.013523,0.002678,0.000431,0.007287
4172000,0.0324,0.013523,0.002678,0.000431,0.007169
4173000,0.0324,0.013523,0.002678,0.000431,0.007169
4174000,0.0324,0.013523,0.002678,0.000431,0.007404
4175000,0.0324,0.013523,0.002678,0.000431,0.007522
4176000,0.0324,0.013523,0.002678,0.000431,0.007052
4177000,0.0324,0.013523,0.002678,0.000431,0.007639
4178000,0.0324,0.013523,0.002678,0.000431,0.007287
4179000,0.0324,0.013523,0.002678,0.000431,0.007404
4180000,0.0324,0.013523,0.002678,0.000431,0.007287
4181000,0.0324,0.013523,0.002678,0.000431,0.007404
4182000,0.0324,0.013523,0.002678,0.000431,0.007522
4183000,0.0324,0.013523,0.002678,0.000431,0.007287
4184000,0.0324,0.013523,0.002678,0.000431,0.006699
4185000,0.0324,0.013523,0.002678,0.000431,0.006464
4186000,0.0324,0.013523,0.002678,0.000431,0.006934
4187000,0.0324,0.013523,0.002678,0.000431,0.006464
4188000,0.0324,0.013523,0.002678,0.000431,0.007052
4189000,0.0324,0.013523,0.002678,0.000431,0.006464
4190000,0.0324,0.013523,0.002678,0.000431,0.006817
4191000,0.0324,0.013523,0.002678,0.000431,0.006582
4192000,0.0324,0.013523,0.002678,0.000431,0.006582
4193000,0.0324,0.013523,0.002678,0.000431,0.006817
4194000,0.0324,0.013523,0.002678,0.000431,0.006699
4195000,0.0324,0.013523,0.002678,0.000431,0.006699
4196000,0.0324,0.013523,0.002678,0.000431,0.006817
4197000,0.0324,0.013523,0.002678,0.000431,0.006582
4198000,0.0324,0.013523,0.002678,0.000431,0.007287
4199000,0.0324,0.013523,0.002678,0.000431,0.006817
4200000,0.0324,0.013523,0.002678,0.000431,0.006582
4201000,0.0324,0.013523,0.002678,0.000431,0.007052
4202000,0.0324,0.013523,0.002678,0.000431,0.007639
4203000,0.0324,0.013523,0.002678,0.000431,0.006229
4204000,0.0324,0.013523,0.002678,0.000431,0.007052
4205000,0.0324,0.013523,0.002678,0.000431,0.006582
4206000,0.0324,0.013523,0.002678,0.000431,0.006582
4207000,0.0324,0.013523,0.002678,0.000431,0.006934
4208000,0.0324,0.013523,0.002678,0.000431,0.006229
4209000,0.0324,0.013523,0.002678,0.000431,0.006934
4210000,0.0324,0.013523,0.002678,0.000431,0.006347
4211000,0.0324,0.013523,0.002678,0.000431,0.007052
4212000,0.0324,0.013523,0.002678,0.000431,0.005994
4213000,0.0324,0.013523,0.002678,0.000431,0.007287
4214000,0.0324,0.013523,0.002678,0.000431,0.006699
4215000,0.0324,0.013523,0.002678,0.000431,0.006582
4216000,0.0324,0.013523,0.002678,0.000431,0.006582
4217000,0.0324,0.013523,0.002678,0.000431,0.006111
4218000,0.0324,0.013523,0.002678,0.000431,0.006699
4219000,0.0324,0.013523,0.002678,0.000431,0.006699
4220000,0.0324,0.013523,0.002678,0.000431,0.006582
4221000,0.0324,0.013523,0.002678,0.000431,0.006934
4222000,0.0324,0.013523,0.002678,0.000431,0.006229
4223000,0.0324,0.013523,0.002678,0.000431,0.006934
4224000,0.0324,0.013523,0.002678,0.000431,0.006582
4225000,0.0324,0.013523,0.002678,0.000431,0.006347
4226000,0.0324,0.013523,0.002678,0.000431,0.006464
4227000,0.0324,0.013523,0.002678,0.000431,0.006229
4228000,0.0324,0.013523,0.002678,0.000431,0.005641
4229000,0.0324,0.013523,0.002678,0.000431,0.006699
4230000,0.0324,0.013523,0.002678,0.000431,0.006111
4231000,0.0324,0.013523,0.002678,0.000431,0.006229
4232000,0.0324,0.013523,0.002678,0.000431,0.005994
4233000,0.0324,0.013523,0.002678,0.000431,0.005994
4234000,0.0324,0.013523,0.002678,0.000431,0.006111
4235000,0.0324,0.013523,0.002678,0.000431,0.006582
4236000,0.0324,0.013523,0.002678,0.000431,0.005641
4237000,0.0324,0.013523,0.002678,0.000431,0.005641
4238000,0.0324,0.013523,0.002678,0.000431,0.006229
4239000,0.0324,0.013523,0.002678,0.000431,0.005994
4240000,0.0324,0.013523,0.002678,0.000431,0.006582
4241000,0.0324,0.013523,0.002678,0.000431,0.005876
4242000,0.0324,0.013523,0.002678,0.000431,0.006229
4243000,0.0324,0.013523,0.002678,0.000431,0.006347
4244000,0.0324,0.013523,0.002678,0.000431,0.005759
4245000,0.0324,0.013523,0.002678,0.000431,0.005641
4246000,0.0324,0.013523,0.002678,0.000431,0.006464
4247000,0.0324,0.013523,0.002678,0.000431,0.006229
4248000,0.0324,0.013523,0.002678,0.000431,0.005994
4249000,0.0324,0.013523,0.002678,0.000431,0.005994
4250000,0.0324,0.013523,0.002678,0.000431,0.005994
4251000,0.0324,0.013523,0.002678,0.000431,0.006111
4252000,0.0324,0.013523,0.002678,0.000431,0.005994
4253000,0.0324,0.013523,0.002678,0.000431,0.006229
4254000,0.0324,0.013523,0.002678,0.000431,0.006347
4255000,0.0324,0.013523,0.002678,0.000431,0.005994
4256000,0.0324,0.013523,0.002678,0.000431,0.006464
4257000,0.0324,0.013523,0.002678,0.000431,0.005994
4258000,0.0324,0.013523,0.002678,0.000431,0.005524
4259000,0.0324,0.013523,0.002678,0.000431,0.005994
4260000,0.0324,0.013523,0.002678,0.000431,0.006111
4261000,0.0324,0.013523,0.002678,0.000431,0.006229
4262000,0.0324,0.013523,0.002678,0.000431,0.005759
4263000,0.0324,0.013523,0.002678,0.000431,0.006229
4264000,0.0324,0.013523,0.002678,0.000431,0.005641
4265000,0.0324,0.013523,0.002678,0.000431,0.005876
4266000,0.0324,0.013523,0.002678,0.000431,0.006464
4267000,0.0324,0.013523,0.002678,0.000431,0.005759
4268000,0.0324,0.013523,0.002678,0.000431,0.005759
4269000,0.0324,0.013523,0.002678,0.000431,0.006111
4270000,0.0324,0.013523,0.002678,0.000431,0.005876
4271000,0.0324,0.013523,0.002678,0.000431,0.005994
4272000,0.0324,0.013523,0.002678,0.000431,0.005876
4273000,0.0324,0.013523,0.002678,0.000431,0.006229
4274000,0.0324,0.013523,0.002678,0.000431,0.005641
4275000,0.0324,0.013523,0.002678,0.000431,0.005994
4276000,0.0324,0.013523,0.002678,0.000431,0.005876
4277000,0.0324,0.013523,0.002678,0.000431,0.006229
4278000,0.0324,0.013523,0.002678,0.000431,0.006464
4279000,0.0324,0.013523,0.002678,0.000431,0.005759
4280000,0.0324,0.013523,0.002678,0.000431,0.005641
4281000,0.0324,0.013523,0.002678,0.000431,0.006111
4282000,0.0324,0.013523,0.002678,0.000431,0.006347
4283000,0.0324,0.013523,0.002678,0.000431,0.005524
4284000,0.0324,0.013523,0.002678,0.000431,0.006464
4285000,0.0324,0.013523,0.002678,0.000431,0.005994
4286000,0.0324,0.013523,0.002678,0.000431,0.005994
4287000,0.0324,0.013523,0.002678,0.000431,0.005994
4288000,0.0324,0.013523,0.002678,0.000431,0.005876
4289000,0.0324,0.013523,0.002678,0.000431,0.006111
4290000,0.0324,0.013523,0.002678,0.000431,0.005759
4291000,0.0324,0.013523,0.002678,0.000431,0.006229
4292000,0.0324,0.013523,0.002678,0.000431,0.005876
4293000,0.0324,0.013523,0.002678,0.000431,0.005994
4294000,0.0324,0.013523,0.002678,0.000431,0.005994
4295000,0.0324,0.013523,0.002678,0.000431,0.005641
4296000,0.0324,0.013523,0.002678,0.000431,0.006347
4297000,0.0324,0.013523,0.002678,0.000431,0.006229
4298000,0.0324,0.013523,0.002678,0.000431,0.005876
4299000,0.0324,0.013523,0.002678,0.000431,0.006229
4300000,0.0324,0.013523,0.002678,0.000431,0.006347
4301000,0.0324,0.013523,0.002678,0.000431,0.006229
4302000,0.0324,0.013523,0.002678,0.000431,0.005524
4303000,0.0324,0.013523,0.002678,0.000431,0.006934
4304000,0.0324,0.013523,0.002678,0.000431,0.005994
4305000,0.0324,0.013523,0.002678,0.000431,0.006111
4306000,0.0324,0.013523,0.002678,0.000431,0.005641
4307000,0.0324,0.013523,0.002678,0.000431,0.005876
4308000,0.0324,0.013523,0.002678,0.000431,0.005876
4309000,0.0324,0.013523,0.002678,0.000431,0.005994
4310000,0.0324,0.013523,0.002678,0.000431,0.006347
4311000,0.0324,0.013523,0.002678,0.000431,0.005641
4312000,0.0324,0.013523,0.002678,0.000431,0.006111
4313000,0.0324,0.013523,0.002678,0.000431,0.006464
4314000,0.0324,0.013523,0.002678,0.000431,0.006229
4315000,0.0324,0.013523,0.002678,0.000431,0.006347
4316000,0.0324,0.013523,0.002678,0.000431,0.005759
4317000,0.0324,0.013523,0.002678,0.000431,0.006111
4318000,0.0324,0.013523,0.002678,0.000431,0.006464
4319000,0.0324,0.013523,0.002678,0.000431,0.006111
4320000,0.0324,0.013523,0.002678,0.000431,0.006111
4321000,0.0324,0.013523,0.002678,0.000431,0.005759
4322000,0.0324,0.013523,0.002678,0.000431,0.006229
4323000,0.0324,0.013523,0.002678,0.000431,0.006111
4324000,0.0324,0.013523,0.002678,0.000431,0.006111
4325000,0.0324,0.013523,0.002678,0.000431,0.006111
4326000,0.0324,0.013523,0.002678,0.000431,0.005994
4327000,0.0324,0.013523,0.002678,0.000431,0.005876
4328000,0.0324,0.013523,0.002678,0.000431,0.006111
4329000,0.0324,0.013523,0.002678,0.000431,0.005994
4330000,0.0324,0.013523,0.002678,0.000431,0.005759
4331000,0.0324,0.013523,0.002678,0.000431,0.005524
4332000,0.0324,0.013523,0.002678,0.000431,0.005524
4333000,0.0324,0.013523,0.002678,0.000431,0.005641
4334000,0.0324,0.013523,0.002678,0.000431,0.004936
4335000,0.0324,0.013523,0.002678,0.000431,0.005641
4336000,0.0324,0.013523,0.002678,0.000431,0.005524
4337000,0.0324,0.013523,0.002678,0.000431,0.005641
4338000,0.0324,0.013523,0.002678,0.000431,0.005054
4339000,0.0324,0.013523,0.002678,0.000431,0.005524
4340000,0.0324,0.013523,0.002678,0.000431,0.005289
4341000,0.0324,0.013523,0.002678,0.000431,0.005406
4342000,0.0324,0.013523,0.002678,0.000431,0.005289
4343000,0.0324,0.013523,0.002678,0.000431,0.005289
4344000,0.0324,0.013523,0.002678,0.000431,0.005524
4345000,0.0324,0.013523,0.002678,0.000431,0.005641
4346000,0.0324,0.013523,0.002678,0.000431,0.005641
4347000,0.0324,0.013523,0.002678,0.000431,0.005524
4348000,0.0324,0.013523,0.002678,0.000431,0.005641
4349000,0.0324,0.013523,0.002678,0.000431,0.005641
4350000,0.0324,0.013523,0.002678,0.000431,0.005524
4351000,0.0324,0.013523,0.002678,0.000431,0.004936
4352000,0.0324,0.013523,0.002678,0.000431,0.005524
4353000,0.0324,0.013523,0.002678,0.000431,0.005406
4354000,0.0324,0.013523,0.002678,0.000431,0.005289
4355000,0.0324,0.013523,0.002678,0.000431,0.005289
4356000,0.0324,0.013523,0.002678,0.000431,0.005524
4357000,0.0324,0.013523,0.002678,0.000431,0.005289
4358000,0.0324,0.013523,0.002678,0.000431,0.005406
4359000,0.0324,0.013523,0.002678,0.000431,0.005171
4360000,0.0324,0.013523,0.002678,0.000431,0.005876
4361000,0.0324,0.013523,0.002678,0.000431,0.005524
4362000,0.0324,0.013523,0.002678,0.000431,0.005641
4363000,0.0324,0.013523,0.002678,0.000431,0.005171
4364000,0.0324,0.013523,0.002678,0.000431,0.005876
4365000,0.0324,0.013523,0.002678,0.000431,0.005524
4366000,0.0324,0.013523,0.002678,0.000431,0.005289
4367000,0.0324,0.013523,0.002678,0.000431,0.005641
4368000,0.0324,0.013523,0.002678,0.000431,0.004936
4369000,0.0324,0.013523,0.002678,0.000431,0.005641
4370000,0.0324,0.013523,0.002678,0.000431,0.005524
4371000,0.0324,0.013523,0.002678,0.000431,0.005641
4372000,0.0324,0.013523,0.002678,0.000431,0.005054
4373000,0.0324,0.013523,0.002678,0.000431,0.005759
4374000,0.0324,0.013523,0.002678,0.000431,0.005406
4375000,0.0324,0.013523,0.002678,0.000431,0.005406
4376000,0.0324,0.013523,0.002678,0.000431,0.005524
4377000,0.0324,0.013523,0.002678,0.000431,0.005289
4378000,0.0324,0.013523,0.002678,0.000431,0.005641
4379000,0.0324,0.013523,0.002678,0.000431,0.005289
4380000,0.0324,0.013523,0.002678,0.000431,0.005171
4381000,0.0324,0.013523,0.002678,0.000431,0.005876
4382000,0.0324,0.013523,0.002678,0.000431,0.005054
4383000,0.0324,0.013523,0.002678,0.000431,0.005406
4384000,0.0324,0.013523,0.002678,0.000431,0.005524
4385000,0.0324,0.013523,0.002678,0.000431,0.005054
4386000,0.0324,0.013523,0.002678,0.000431,0.005759
4387000,0.0324,0.013523,0.002678,0.000431,0.005524
4388000,0.0324,0.013523,0.002678,0.000431,0.005171
4389000,0.0324,0.013523,0.002678,0.000431,0.005171
4390000,0.0324,0.013523,0.002678,0.000431,0.005054
4391000,0.0324,0.013523,0.002678,0.000431,0.005524
4392000,0.0324,0.013523,0.002678,0.000431,0.005289
4393000,0.0324,0.013523,0.002678,0.000431,0.005641
4394000,0.0324,0.013523,0.002678,0.000431,0.005406
4395000,0.0324,0.013523,0.002678,0.000431,0.005524
4396000,0.0324,0.013523,0.002678,0.000431,0.005289
4397000,0.0324,0.013523,0.002678,0.000431,0.005524
4398000,0.0324,0.013523,0.002678,0.000431,0.005289
4399000,0.0324,0.013523,0.002678,0.000431,0.005759
4400000,0.0324,0.013523,0.002678,0.000431,0.005524
4401000,0.0324,0.013523,0.002678,0.000431,0.005759
4402000,0.0324,0.013523,0.002678,0.000431,0.004936
4403000,0.0324,0.013523,0.002678,0.000431,0.005759
4404000,0.0324,0.013523,0.002678,0.000431,0.005406
4405000,0.0324,0.013523,0.002678,0.000431,0.005641
4406000,0.0324,0.013523,0.002678,0.000431,0.005406
4407000,0.0324,0.013523,0.002678,0.000431,0.005171
4408000,0.0324,0.013523,0.002678,0.000431,0.005524
4409000,0.0324,0.013523,0.002678,0.000431,0.004936
4410000,0.0324,0.013523,0.002678,0.000431,0.005289
4411000,0.0324,0.013523,0.002678,0.000431,0.005641
4412000,0.0324,0.013523,0.002678,0.000431,0.005406
4413000,0.0324,0.013523,0.002678,0.000431,0.005524
4414000,0.0324,0.013523,0.002678,0.000431,0.005641
4415000,0.0324,0.013523,0.002678,0.000431,0.005406
4416000,0.0324,0.013523,0.002678,0.000431,0.005406
4417000,0.0324,0.013523,0.002678,0.000431,0.005171
4418000,0.0324,0.013523,0.002678,0.000431,0.005641
4419000,0.0324,0.013523,0.002678,0.000431,0.005406
4420000,0.0324,0.013523,0.002678,0.000431,0.005289
4421000,0.0324,0.013523,0.002678,0.000431,0.005406
4422000,0.0324,0.013523,0.002678,0.000431,0.005524
4423000,0.0324,0.013523,0.002678,0.000431,0.005171
4424000,0.0324,0.013523,0.002678,0.000431,0.005171
4425000,0.0324,0.013523,0.002678,0.000431,0.005406
4426000,0.0324,0.013523,0.002678,0.000431,0.005524
4427000,0.0324,0.013523,0.002678,0.000431,0.005289
4428000,0.0324,0.013523,0.002678,0.000431,0.005759
4429000,0.0324,0.013523,0.002678,0.000431,0.005524
4430000,0.0324,0.013523,0.002678,0.000431,0.005524
4431000,0.0324,0.013523,0.002678,0.000431,0.005054
4432000,0.0324,0.013523,0.002678,0.000431,0.004936
4433000,0.0324,0.013523,0.002678,0.000431,0.005759
4434000,0.0324,0.013523,0.002678,0.000431,0.005171
4435000,0.0324,0.013523,0.002678,0.000431,0.005406
4436000,0.0324,0.013523,0.002678,0.000431,0.005641
4437000,0.0324,0.013523,0.002678,0.000431,0.005406
4438000,0.0324,0.013523,0.002678,0.000431,0.005289
4439000,0.0324,0.013523,0.002678,0.000431,0.005524
4440000,0.0324,0.013523,0.002678,0.000431,0.005406
4441000,0.0324,0.013523,0.002678,0.000431,0.005759
4442000,0.0324,0.013523,0.002678,0.000431,0.005289
4443000,0.0324,0.013523,0.002678,0.000431,0.005759
4444000,0.0324,0.013523,0.002678,0.000431,0.005289
4445000,0.0324,0.013523,0.002678,0.000431,0.005641
4446000,0.0324,0.013523,0.002678,0.000431,0.005171
4447000,0.0324,0.013523,0.002678,0.000431,0.005641
4448000,0.0324,0.013523,0.002678,0.000431,0.006111
4449000,0.0324,0.013523,0.002678,0.000431,0.005524
4450000,0.0324,0.013523,0.002678,0.000431,0.005054
4451000,0.0324,0.013523,0.002678,0.000431,0.005406
4452000,0.0324,0.013523,0.002678,0.000431,0.005876
4453000,0.0324,0.013523,0.002678,0.000431,0.005524
4454000,0.0324,0.013523,0.002678,0.000431,0.005289
4455000,0.0324,0.013523,0.002678,0.000431,0.005524
4456000,0.0324,0.013523,0.002678,0.000431,0.005524
4457000,0.0324,0.013523,0.002678,0.000431,0.005406
4458000,0.0324,0.013523,0.002678,0.000431,0.005524
4459000,0.0324,0.013523,0.002678,0.000431,0.005524
4460000,0.0324,0.013523,0.002678,0.000431,0.005289
4461000,0.0324,0.013523,0.002678,0.000431,0.005289
4462000,0.0324,0.013523,0.002678,0.000431,0.005641
4463000,0.0324,0.013523,0.002678,0.000431,0.005524
4464000,0.0324,0.013523,0.002678,0.000431,0.004701
4465000,0.0324,0.013523,0.002678,0.000431,0.005406
4466000,0.0324,0.013523,0.002678,0.000431,0.005524
4467000,0.0324,0.013523,0.002678,0.000431,0.005171
4468000,0.0324,0.013523,0.002678,0.000431,0.005641
4469000,0.0324,0.013523,0.002678,0.000431,0.005524
4470000,0.0324,0.013523,0.002678,0.000431,0.005171
4471000,0.0324,0.013523,0.002678,0.000431,0.005876
4472000,0.0324,0.013523,0.002678,0.000431,0.005406
4473000,0.0324,0.013523,0.002678,0.000431,0.004936
4474000,0.0324,0.013523,0.002678,0.000431,0.005641
4475000,0.0324,0.013523,0.002678,0.000431,0.005171
4476000,0.0324,0.013523,0.002678,0.000431,0.005524
4477000,0.0324,0.013523,0.002678,0.000431,0.005524
4478000,0.0324,0.013523,0.002678,0.000431,0.005406
4479000,0.0324,0.013523,0.002678,0.000431,0.005876
4480000,0.0324,0.013523,0.002678,0.000431,0.005406
4481000,0.0324,0.013523,0.002678,0.000431,0.005759
4482000,0.0324,0.013523,0.002678,0.000431,0.005406
4483000,0.0324,0.013523,0.002678,0.000431,0.005876
4484000,0.0324,0.013523,0.002678,0.000431,0.005054
4485000,0.0324,0.013523,0.002678,0.000431,0.005524
4486000,0.0324,0.013523,0.002678,0.000431,0.005641
4487000,0.0324,0.013523,0.002678,0.000431,0.005171
4488000,0.0324,0.013523,0.002678,0.000431,0.005406
4489000,0.0324,0.013523,0.002678,0.000431,0.005406
4490000,0.0324,0.013523,0.002678,0.000431,0.005171
4491000,0.0324,0.013523,0.002678,0.000431,0.005171
4492000,0.0324,0.013523,0.002678,0.000431,0.005406
4493000,0.0324,0.013523,0.002678,0.000431,0.005406
4494000,0.0324,0.013523,0.002678,0.000431,0.005641
4495000,0.0324,0.013523,0.002678,0.000431,0.005641
4496000,0.0324,0.013523,0.002678,0.000431,0.005171
4497000,0.0324,0.013523,0.002678,0.000431,0.005641
4498000,0.0324,0.013523,0.002678,0.000431,0.006111
4499000,0.0324,0.013523,0.002678,0.000431,0.005289
4500000,0.0324,0.013523,0.002678,0.000431,0.005054
4501000,0.0324,0.013523,0.002678,0.000431,0.005876
4502000,0.0324,0.013523,0.002678,0.000431,0.005641
4503000,0.0324,0.013523,0.002678,0.000431,0.005406
4504000,0.0324,0.013523,0.002678,0.000431,0.005054
4505000,0.0324,0.013523,0.002678,0.000431,0.005641
4506000,0.0324,0.013523,0.002678,0.000431,0.005876
4507000,0.0324,0.013523,0.002678,0.000431,0.005289
4508000,0.0324,0.013523,0.002678,0.000431,0.005524
4509000,0.0324,0.013523,0.002678,0.000431,0.005171
4510000,0.0324,0.013523,0.002678,0.000431,0.005524
4511000,0.0324,0.013523,0.002678,0.000431,0.005759
4512000,0.0324,0.013523,0.002678,0.000431,0.005054
4513000,0.0324,0.013523,0.002678,0.000431,0.005406
4514000,0.0324,0.013523,0.002678,0.000431,0.005524
4515000,0.0324,0.013523,0.002678,0.000431,0.005289
4516000,0.0324,0.013523,0.002678,0.000431,0.005524
4517000,0.0324,0.013523,0.002678,0.000431,0.005524
4518000,0.0324,0.013523,0.002678,0.000431,0.005171
4519000,0.0324,0.013523,0.002678,0.000431,0.005876
4520000,0.0324,0.013523,0.002678,0.000431,0.005524
4521000,0.0324,0.013523,0.002678,0.000431,0.005054
4522000,0.0324,0.013523,0.002678,0.000431,0.005759
4523000,0.0324,0.013523,0.002678,0.000431,0.005054
4524000,0.0324,0.013523,0.002678,0.000431,0.005406
4525000,0.0324,0.013523,0.002678,0.000431,0.005406
4526000,0.0324,0.013523,0.002678,0.000431,0.005406
4527000,0.0324,0.013523,0.002678,0.000431,0.005171
4528000,0.0324,0.013523,0.002678,0.000431,0.005524
4529000,0.0324,0.013523,0.002678,0.000431,0.005406
4530000,0.0324,0.013523,0.002678,0.000431,0.005171
4531000,0.0324,0.013523,0.002678,0.000431,0.005171
4532000,0.0324,0.013523,0.002678,0.000431,0.005641
4533000,0.0324,0.013523,0.002678,0.000431,0.004701
4534000,0.0324,0.013523,0.002678,0.000431,0.004349
4535000,0.0324,0.013523,0.002678,0.000431,0.005289
4536000,0.0324,0.013523,0.002678,0.000431,0.004819
4537000,0.0324,0.013523,0.002678,0.000431,0.004701
4538000,0.0324,0.013523,0.002678,0.000431,0.005054
4539000,0.0324,0.013523,0.002678,0.000431,0.004701
4540000,0.0324,0.013523,0.002678,0.000431,0.005054
4541000,0.0324,0.013523,0.002678,0.000431,0.004819
4542000,0.0324,0.013523,0.002678,0.000431,0.005054
4543000,0.0324,0.013523,0.002678,0.000431,0.004584
4544000,0.0324,0.013523,0.002678,0.000431,0.005054
4545000,0.0324,0.013523,0.002678,0.000431,0.004936
4546000,0.0324,0.013523,0.002678,0.000431,0.004701
4547000,0.0324,0.013523,0.002678,0.000431,0.004819
4548000,0.0324,0.013523,0.002678,0.000431,0.004819
4549000,0.0324,0.013523,0.002678,0.000431,0.004701
4550000,0.0324,0.013523,0.002678,0.000431,0.004584
4551000,0.0324,0.013523,0.002678,0.000431,0.004819
4552000,0.0324,0.013523,0.002678,0.000431,0.004936
4553000,0.0324,0.013523,0.002678,0.000431,0.005054
4554000,0.0324,0.013523,0.002678,0.000431,0.004936
4555000,0.0324,0.013523,0.002678,0.000431,0.004701
4556000,0.0324,0.013523,0.002678,0.000431,0.004936
4557000,0.0324,0.013523,0.002678,0.000431,0.005171
4558000,0.0324,0.013523,0.002678,0.000431,0.005171
4559000,0.0324,0.013523,0.002678,0.000431,0.004584
4560000,0.0324,0.013523,0.002678,0.000431,0.004584
4561000,0.0324,0.013523,0.002678,0.000431,0.004231
4562000,0.0324,0.013523,0.002678,0.000431,0.004231
4563000,0.0324,0.013523,0.002678,0.000431,0.004231
4564000,0.0324,0.013523,0.002678,0.000431,0.004466
4565000,0.0324,0.013523,0.002678,0.000431,0.004466
4566000,0.0324,0.013523,0.002678,0.000431,0.004349
4567000,0.0324,0.013523,0.002678,0.000431,0.003878
4568000,0.0324,0.013523,0.002678,0.000431,0.004349
4569000,0.0324,0.013523,0.002678,0.000431,0.004113
4570000,0.0324,0.013523,0.002678,0.000431,0.004231
4571000,0.0324,0.013523,0.002678,0.000431,0.003996
4572000,0.0324,0.013523,0.002678,0.000431,0.004113
4573000,0.0324,0.013523,0.002678,0.000431,0.004113
4574000,0.0324,0.013523,0.002678,0.000431,0.004231
4575000,0.0324,0.013523,0.002678,0.000431,0.003996
4576000,0.0324,0.013523,0.002678,0.000431,0.004584
4577000,0.0324,0.013523,0.002678,0.000431,0.004231
4578000,0.0324,0.013523,0.002678,0.000431,0.004113
4579000,0.0324,0.013523,0.002678,0.000431,0.003056
4580000,0.0324,0.013523,0.002678,0.000431,0.003643
4581000,0.0324,0.013523,0.002678,0.000431,0.003643
4582000,0.0324,0.013523,0.002678,0.000431,0.003526
4583000,0.0324,0.013523,0.002678,0.000431,0.003291
4584000,0.0324,0.013523,0.002678,0.000431,0.003056
4585000,0.0324,0.013523,0.002678,0.000431,0.003408
4586000,0.0324,0.013523,0.002678,0.000431,0.003291
4587000,0.0324,0.013523,0.002678,0.000431,0.003408
4588000,0.0324,0.013523,0.002678,0.000431,0.003526
4589000,0.0324,0.013523,0.002678,0.000431,0.003643
4590000,0.0324,0.013523,0.002678,0.000431,0.003643
4591000,0.0324,0.013523,0.002678,0.000431,0.003526
4592000,0.0324,0.013523,0.002678,0.000431,0.003526
4593000,0.0324,0.013523,0.002678,0.000431,0.003643
4594000,0.0324,0.013523,0.002678,0.000431,0.003056
4595000,0.0324,0.013523,0.002678,0.000431,0.003761
4596000,0.0324,0.013523,0.002678,0.000431,0.003526
4597000,0.0324,0.013523,0.002678,0.000431,0.003291
4598000,0.0324,0.013523,0.002678,0.000431,0.003408
4599000,0.0324,0.013523,0.002678,0.000431,0.003643
4600000,0.0324,0.013523,0.002678,0.000431,0.003761
4601000,0.0324,0.013523,0.002678,0.000431,0.003408
4602000,0.0324,0.013523,0.002678,0.000431,0.003878
4603000,0.0324,0.013523,0.002678,0.000431,0.003526
4604000,0.0324,0.013523,0.002678,0.000431,0.003526
4605000,0.0324,0.013523,0.002678,0.000431,0.003408
4606000,0.0324,0.013523,0.002678,0.000431,0.003408
4607000,0.0324,0.013523,0.002678,0.000431,0.003291
4608000,0.0324,0.013523,0.002678,0.000431,0.003878
4609000,0.0324,0.013523,0.002678,0.000431,0.003056
4610000,0.0324,0.013523,0.002678,0.000431,0.003526
4611000,0.0324,0.013523,0.002678,0.000431,0.003526
4612000,0.0324,0.013523,0.002678,0.000431,0.003408
4613000,0.0324,0.013523,0.002678,0.000431,0.003408
4614000,0.0324,0.013523,0.002678,0.000431,0.003761
4615000,0.0324,0.013523,0.002678,0.000431,0.003056
4616000,0.0324,0.013523,0.002678,0.000431,0.003408
4617000,0.0324,0.013523,0.002678,0.000431,0.003408
4618000,0.0324,0.013523,0.002678,0.000431,0.003408
4619000,0.0324,0.013523,0.002678,0.000431,0.003291
4620000,0.0324,0.013523,0.002678,0.000431,0.003643
4621000,0.0324,0.013523,0.002678,0.000431,0.003291
4622000,0.0324,0.013523,0.002678,0.000431,0.003643
4623000,0.0324,0.013523,0.002678,0.000431,0.003291
4624000,0.0324,0.013523,0.002678,0.000431,0.003643
4625000,0.0324,0.013523,0.002678,0.000431,0.003643
4626000,0.0324,0.013523,0.002678,0.000431,0.003526
4627000,0.0324,0.013523,0.002678,0.000431,0.003173
4628000,0.0324,0.013523,0.002678,0.000431,0.003526
4629000,0.0324,0.013523,0.002678,0.000431,0.003761
4630000,0.0324,0.013523,0.002678,0.000431,0.003173
4631000,0.0324,0.013523,0.002678,0.000431,0.003291
4632000,0.0324,0.013523,0.002678,0.000431,0.004231
4633000,0.0324,0.013523,0.002678,0.000431,0.003526
4634000,0.0324,0.013523,0.002678,0.000431,0.003408
4635000,0.0324,0.013523,0.002678,0.000431,0.003643
4636000,0.0324,0.013523,0.002678,0.000431,0.003291
4637000,0.0324,0.013523,0.002678,0.000431,0.003761
4638000,0.0324,0.013523,0.002678,0.000431,0.003643
4639000,0.0324,0.013523,0.002678,0.000431,0.003643
4640000,0.0324,0.013523,0.002678,0.000431,0.003526
4641000,0.0324,0.013523,0.002678,0.000431,0.003526
4642000,0.0324,0.013523,0.002678,0.000431,0.003526
4643000,0.0324,0.013523,0.002678,0.000431,0.003643
4644000,0.0324,0.013523,0.002678,0.000431,0.003408
4645000,0.0324,0.013523,0.002678,0.000431,0.003878
4646000,0.0324,0.013523,0.002678,0.000431,0.003408
4647000,0.0324,0.013523,0.002678,0.000431,0.003526
4648000,0.0324,0.013523,0.002678,0.000431,0.003643
4649000,0.0324,0.013523,0.002678,0.000431,0.003173
4650000,0.0324,0.013523,0.002678,0.000431,0.003526
4651000,0.0324,0.013523,0.002678,0.000431,0.003761
4652000,0.0324,0.013523,0.002678,0.000431,0.003761
4653000,0.0324,0.013523,0.002678,0.000431,0.003408
4654000,0.0324,0.013523,0.002678,0.000431,0.003643
4655000,0.0324,0.013523,0.002678,0.000431,0.003408
4656000,0.0324,0.013523,0.002678,0.000431,0.003291
4657000,0.0324,0.013523,0.002678,0.000431,0.003643
4658000,0.0324,0.013523,0.002678,0.000431,0.003526
4659000,0.0324,0.013523,0.002678,0.000431,0.003526
4660000,0.0324,0.013523,0.002678,0.000431,0.003761
4661000,0.0324,0.013523,0.002678,0.000431,0.003643
4662000,0.0324,0.013523,0.002678,0.000431,0.003173
4663000,0.0324,0.013523,0.002678,0.000431,0.003761
4664000,0.0324,0.013523,0.002678,0.000431,0.003291
4665000,0.0324,0.013523,0.002678,0.000431,0.003408
4666000,0.0324,0.013523,0.002678,0.000431,0.003408
4667000,0.0324,0.013523,0.002678,0.000431,0.003408
4668000,0.0324,0.013523,0.002678,0.000431,0.003291
4669000,0.0324,0.013523,0.002678,0.000431,0.003526
4670000,0.0324,0.013523,0.002678,0.000431,0.003526
4671000,0.0324,0.013523,0.002678,0.000431,0.003408
4672000,0.0324,0.013523,0.002678,0.000431,0.003643
4673000,0.0324,0.013523,0.002678,0.000431,0.003643
4674000,0.0324,0.013523,0.002678,0.000431,0.003408
4675000,0.0324,0.013523,0.002678,0.000431,0.003643
4676000,0.0324,0.013523,0.002678,0.000431,0.003291
4677000,0.0324,0.013523,0.002678,0.000431,0.003643
4678000,0.0324,0.013523,0.002678,0.000431,0.003761
4679000,0.0324,0.013523,0.002678,0.000431,0.003056
4680000,0.0324,0.013523,0.002678,0.000431,0.003408
4681000,0.0324,0.013523,0.002678,0.000431,0.003408
4682000,0.0324,0.013523,0.002678,0.000431,0.003526
4683000,0.0324,0.013523,0.002678,0.000431,0.003643
4684000,0.0324,0.013523,0.002678,0.000431,0.003291
4685000,0.0324,0.013523,0.002678,0.000431,0.003878
4686000,0.0324,0.013523,0.002678,0.000431,0.003526
4687000,0.0324,0.013523,0.002678,0.000431,0.003761
4688000,0.0324,0.013523,0.002678,0.000431,0.003761
4689000,0.0324,0.013523,0.002678,0.000431,0.003643
4690000,0.0324,0.013523,0.002678,0.000431,0.003408
4691000,0.0324,0.013523,0.002678,0.000431,0.003643
4692000,0.0324,0.013523,0.002678,0.000431,0.003291
4693000,0.0324,0.013523,0.002678,0.000431,0.003526
4694000,0.0324,0.013523,0.002678,0.000431,0.003761
4695000,0.0324,0.013523,0.002678,0.000431,0.003408
4696000,0.0324,0.013523,0.002678,0.000431,0.003643
4697000,0.0324,0.013523,0.002678,0.000431,0.003408
4698000,0.0324,0.013523,0.002678,0.000431,0.003526
4699000,0.0324,0.013523,0.002678,0.000431,0.003526
4700000,0.0324,0.013523,0.002678,0.000431,0.003643
4701000,0.0324,0.013523,0.002678,0.000431,0.003408
4702000,0.0324,0.013523,0.002678,0.000431,0.003643
4703000,0.0324,0.013523,0.002678,0.000431,0.003643
4704000,0.0324,0.013523,0.002678,0.000431,0.003408
4705000,0.0324,0.013523,0.002678,0.000431,0.003408
4706000,0.0324,0.013523,0.002678,0.000431,0.003526
4707000,0.0324,0.013523,0.002678,0.000431,0.003526
4708000,0.0324,0.013523,0.002678,0.000431,0.003761
4709000,0.0324,0.013523,0.002678,0.000431,0.003761
4710000,0.0324,0.013523,0.002678,0.000431,0.003761
4711000,0.0324,0.013523,0.002678,0.000431,0.003408
4712000,0.0324,0.013523,0.002678,0.000431,0.003878
4713000,0.0324,0.013523,0.002678,0.000431,0.003643
4714000,0.0324,0.013523,0.002678,0.000431,0.003643
4715000,0.0324,0.013523,0.002678,0.000431,0.003408
4716000,0.0324,0.013523,0.002678,0.000431,0.003878
4717000,0.0324,0.013523,0.002678,0.000431,0.003878
4718000,0.0324,0.013523,0.002678,0.000431,0.003173
4719000,0.0324,0.013523,0.002678,0.000431,0.003408
4720000,0.0324,0.013523,0.002678,0.000431,0.003408
4721000,0.0324,0.013523,0.002678,0.000431,0.003291
4722000,0.0324,0.013523,0.002678,0.000431,0.003878
4723000,0.0324,0.013523,0.002678,0.000431,0.003643
4724000,0.0324,0.013523,0.002678,0.000431,0.003291
4725000,0.0324,0.013523,0.002678,0.000431,0.003408
4726000,0.0324,0.013523,0.002678,0.000431,0.003526
4727000,0.0324,0.013523,0.002678,0.000431,0.003526
4728000,0.0324,0.013523,0.002678,0.000431,0.003408
4729000,0.0324,0.013523,0.002678,0.000431,0.003526
4730000,0.0324,0.013523,0.002678,0.000431,0.003408
4731000,0.0324,0.013523,0.002678,0.000431,0.003526
4732000,0.0324,0.013523,0.002678,0.000431,0.003408
4733000,0.0324,0.013523,0.002678,0.000431,0.003408
4734000,0.0324,0.013523,0.002678,0.000431,0.003526
4735000,0.0324,0.013523,0.002678,0.000431,0.003408
4736000,0.0324,0.013523,0.002678,0.000431,0.003643
4737000,0.0324,0.013523,0.002678,0.000431,0.003643
4738000,0.0324,0.013523,0.002678,0.000431,0.003173
4739000,0.0324,0.013523,0.002678,0.000431,0.003173
4740000,0.0324,0.013523,0.002678,0.000431,0.003408
4741000,0.0324,0.013523,0.002678,0.000431,0.003291
4742000,0.0324,0.013523,0.002678,0.000431,0.003761
4743000,0.0324,0.013523,0.002678,0.000431,0.003408
4744000,0.0324,0.013523,0.002678,0.000431,0.003291
4745000,0.0324,0.013523,0.002678,0.000431,0.003643
4746000,0.0324,0.013523,0.002678,0.000431,0.003526
4747000,0.0324,0.013523,0.002678,0.000431,0.003291
4748000,0.0324,0.013523,0.002678,0.000431,0.003056
4749000,0.0324,0.013523,0.002678,0.000431,0.002938
4750000,0.0324,0.013523,0.002678,0.000431,0.002821
4751000,0.0324,0.013523,0.002678,0.000431,0.002703
4752000,0.0324,0.013523,0.002678,0.000431,0.002703
4753000,0.0324,0.013523,0.002678,0.000431,0.002938
4754000,0.0324,0.013523,0.002678,0.000431,0.002468
4755000,0.0324,0.013523,0.002678,0.000431,0.001998
4756000,0.0324,0.013523,0.002678,0.000431,0.002116
4757000,0.0324,0.013523,0.002678,0.000431,0.001998
4758000,0.0324,0.013523,0.002678,0.000431,0.002116
4759000,0.0324,0.013523,0.002678,0.000431,0.002116
4760000,0.0324,0.013523,0.002678,0.000431,0.002116
4761000,0.0324,0.013523,0.002678,0.000431,0.002233
4762000,0.0324,0.013523,0.002678,0.000431,0.002351
4763000,0.0324,0.013523,0.002678,0.000431,0.002116
4764000,0.0324,0.013523,0.002678,0.000431,0.002233
4765000,0.0324,0.013523,0.002678,0.000431,0.002116
4766000,0.0324,0.013523,0.002678,0.000431,0.001880
4767000,0.0324,0.013523,0.002678,0.000431,0.002116
4768000,0.0324,0.013523,0.002678,0.000431,0.001998
4769000,0.0324,0.013523,0.002678,0.000431,0.002233
4770000,0.0324,0.013523,0.002678,0.000431,0.001998
4771000,0.0324,0.013523,0.002678,0.000431,0.002116
4772000,0.0324,0.013523,0.002678,0.000431,0.002351
4773000,0.0324,0.013523,0.002678,0.000431,0.002116
4774000,0.0324,0.013523,0.002678,0.000431,0.001998
4775000,0.0324,0.013523,0.002678,0.000431,0.001880
4776000,0.0324,0.013523,0.002678,0.000431,0.001998
4777000,0.0324,0.013523,0.002678,0.000431,0.001998
4778000,0.0324,0.013523,0.002678,0.000431,0.002233
4779000,0.0324,0.013523,0.002678,0.000431,0.001998
4780000,0.0324,0.013523,0.002678,0.000431,0.002116
4781000,0.0324,0.013523,0.002678,0.000431,0.002233
4782000,0.0324,0.013523,0.002678,0.000431,0.002233
4783000,0.0324,0.013523,0.002678,0.000431,0.002116
4784000,0.0324,0.013523,0.002678,0.000431,0.001998
4785000,0.0324,0.013523,0.002678,0.000431,0.001998
4786000,0.0324,0.013523,0.002678,0.000431,0.002351
4787000,0.0324,0.013523,0.002678,0.000431,0.001763
4788000,0.0324,0.013523,0.002678,0.000431,0.002116
4789000,0.0324,0.013523,0.002678,0.000431,0.001998
4790000,0.0324,0.013523,0.002678,0.000431,0.001998
4791000,0.0324,0.013523,0.002678,0.000431,0.001880
4792000,0.0324,0.013523,0.002678,0.000431,0.002351
4793000,0.0324,0.013523,0.002678,0.000431,0.002233
4794000,0.0324,0.013523,0.002678,0.000431,0.001998
4795000,0.0324,0.013523,0.002678,0.000431,0.002116
4796000,0.0324,0.013523,0.002678,0.000431,0.002351
4797000,0.0324,0.013523,0.002678,0.000431,0.001880
4798000,0.0324,0.013523,0.002678,0.000431,0.002351
4799000,0.0324,0.013523,0.002678,0.000431,0.002233
4800000,0.0324,0.013523,0.002678,0.000431,0.001998
4801000,0.0324,0.013523,0.002678,0.000431,0.002351
4802000,0.0324,0.013523,0.002678,0.000431,0.001880
4803000,0.0324,0.013523,0.002678,0.000431,0.002233
4804000,0.0324,0.013523,0.002678,0.000431,0.002233
4805000,0.0324,0.013523,0.002678,0.000431,0.002233
4806000,0.0324,0.013523,0.002678,0.000431,0.002116
4807000,0.0324,0.013523,0.002678,0.000431,0.001880
4808000,0.0324,0.013523,0.002678,0.000431,0.002233
4809000,0.0324,0.013523,0.002678,0.000431,0.002233
4810000,0.0324,0.013523,0.002678,0.000431,0.002233
4811000,0.0324,0.013523,0.002678,0.000431,0.002116
4812000,0.0324,0.013523,0.002678,0.000431,0.002116
4813000,0.0324,0.013523,0.002678,0.000431,0.002116
4814000,0.0324,0.013523,0.002678,0.000431,0.001998
4815000,0.0324,0.013523,0.002678,0.000431,0.002116
4816000,0.0324,0.013523,0.002678,0.000431,0.002233
4817000,0.0324,0.013523,0.002678,0.000431,0.001880
4818000,0.0324,0.013523,0.002678,0.000431,0.001410
4819000,0.0324,0.013523,0.002678,0.000431,0.001410
4820000,0.0324,0.013523,0.002678,0.000431,0.001410
4821000,0.0324,0.013523,0.002678,0.000431,0.001293
4822000,0.0324,0.013523,0.002678,0.000431,0.001175
4823000,0.0324,0.013523,0.002678,0.000431,0.001410
4824000,0.0324,0.013523,0.002678,0.000431,0.001410
4825000,0.0324,0.013523,0.002678,0.000431,0.001175
4826000,0.0324,0.013523,0.002678,0.000431,0.001528
4827000,0.0324,0.013523,0.002678,0.000431,0.001410
4828000,0.0324,0.013523,0.002678,0.000431,0.001410
4829000,0.0324,0.013523,0.002678,0.000431,0.001293
4830000,0.0324,0.013523,0.002678,0.000431,0.001528
4831000,0.0324,0.013523,0.002678,0.000431,0.001175
4832000,0.0324,0.013523,0.002678,0.000431,0.001293
4833000,0.0324,0.013523,0.002678,0.000431,0.001293
4834000,0.0324,0.013523,0.002678,0.000431,0.001410
4835000,0.0324,0.013523,0.002678,0.000431,0.001528
4836000,0.0324,0.013523,0.002678,0.000431,0.001175
4837000,0.0324,0.013523,0.002678,0.000431,0.001410
4838000,0.0324,0.013523,0.002678,0.000431,0.001410
4839000,0.0324,0.013523,0.002678,0.000431,0.001528
4840000,0.0324,0.013523,0.002678,0.000431,0.001293
4841000,0.0324,0.013523,0.002678,0.000431,0.001528
4842000,0.0324,0.013523,0.002678,0.000431,0.001528
4843000,0.0324,0.013523,0.002678,0.000431,0.001293
4844000,0.0324,0.013523,0.002678,0.000431,0.001410
4845000,0.0324,0.013523,0.002678,0.000431,0.001293
4846000,0.0324,0.013523,0.002678,0.000431,0.001410
4847000,0.0324,0.013523,0.002678,0.000431,0.001410
4848000,0.0324,0.013523,0.002678,0.000431,0.001528
4849000,0.0324,0.013523,0.002678,0.000431,0.001528
4850000,0.0324,0.013523,0.002678,0.000431,0.001293
4851000,0.0324,0.013523,0.002678,0.000431,0.001293
4852000,0.0324,0.013523,0.002678,0.000431,0.001528
4853000,0.0324,0.013523,0.002678,0.000431,0.001293
4854000,0.0324,0.013523,0.002678,0.000431,0.001293
4855000,0.0324,0.013523,0.002678,0.000431,0.001410
4856000,0.0324,0.013523,0.002678,0.000431,0.001528
4857000,0.0324,0.013523,0.002678,0.000431,0.001293
4858000,0.0324,0.013523,0.002678,0.000431,0.001528
4859000,0.0324,0.013523,0.002678,0.000431,0.001410
4860000,0.0324,0.013523,0.002678,0.000431,0.001293
4861000,0.0324,0.013523,0.002678,0.000431,0.001293
4862000,0.0324,0.013523,0.002678,0.000431,0.001293
4863000,0.0324,0.013523,0.002678,0.000431,0.001410
4864000,0.0324,0.013523,0.002678,0.000431,0.001410
4865000,0.0324,0.013523,0.002678,0.000431,0.001528
4866000,0.0324,0.013523,0.002678,0.000431,0.001410
4867000,0.0324,0.013523,0.002678,0.000431,0.001528
4868000,0.0324,0.013523,0.002678,0.000431,0.000940
4869000,0.0324,0.013523,0.002678,0.000431,0.001528
4870000,0.0324,0.013523,0.002678,0.000431,0.001293
4871000,0.0324,0.013523,0.002678,0.000431,0.001410
4872000,0.0324,0.013523,0.002678,0.000431,0.001528
4873000,0.0324,0.013523,0.002678,0.000431,0.001293
4874000,0.0324,0.013523,0.002678,0.000431,0.001410
4875000,0.0324,0.013523,0.002678,0.000431,0.001293
4876000,0.0324,0.013523,0.002678,0.000431,0.001528
4877000,0.0324,0.013523,0.002678,0.000431,0.001293
4878000,0.0324,0.013523,0.002678,0.000431,0.001293
4879000,0.0324,0.013523,0.002678,0.000431,0.001410
4880000,0.0324,0.013523,0.002678,0.000431,0.001645
4881000,0.0324,0.013523,0.002678,0.000431,0.001410
4882000,0.0324,0.013523,0.002678,0.000431,0.001293
4883000,0.0324,0.013523,0.002678,0.000431,0.001528
4884000,0.0324,0.013523,0.002678,0.000431,0.001410
4885000,0.0324,0.013523,0.002678,0.000431,0.001293
4886000,0.0324,0.013523,0.002678,0.000431,0.001293
4887000,0.0324,0.013523,0.002678,0.000431,0.001410
4888000,0.0324,0.013523,0.002678,0.000431,0.001528
4889000,0.0324,0.013523,0.002678,0.000431,0.001293
4890000,0.0324,0.013523,0.002678,0.000431,0.001410
4891000,0.0324,0.013523,0.002678,0.000431,0.001293
4892000,0.0324,0.013523,0.002678,0.000431,0.001293
4893000,0.0324,0.013523,0.002678,0.000431,0.001410
4894000,0.0324,0.013523,0.002678,0.000431,0.001410
4895000,0.0324,0.013523,0.002678,0.000431,0.001410
4896000,0.0324,0.013523,0.002678,0.000431,0.001763
4897000,0.0324,0.013523,0.002678,0.000431,0.001528
4898000,0.0324,0.013523,0.002678,0.000431,0.001410
4899000,0.0324,0.013523,0.002678,0.000431,0.001410
4900000,0.0324,0.013523,0.002678,0.000431,0.001293
4901000,0.0324,0.013523,0.002678,0.000431,0.001528
4902000,0.0324,0.013523,0.002678,0.000431,0.001410
4903000,0.0324,0.013523,0.002678,0.000431,0.001293
4904000,0.0324,0.013523,0.002678,0.000431,0.001175
4905000,0.0324,0.013523,0.002678,0.000431,0.001410
4906000,0.0324,0.013523,0.002678,0.000431,0.001528
4907000,0.0324,0.013523,0.002678,0.000431,0.001293
4908000,0.0324,0.013523,0.002678,0.000431,0.001645
4909000,0.0324,0.013523,0.002678,0.000431,0.001528
4910000,0.0324,0.013523,0.002678,0.000431,0.001293
4911000,0.0324,0.013523,0.002678,0.000431,0.001410
4912000,0.0324,0.013523,0.002678,0.000431,0.001293
4913000,0.0324,0.013523,0.002678,0.000431,0.001410
4914000,0.0324,0.013523,0.002678,0.000431,0.001410
4915000,0.0324,0.013523,0.002678,0.000431,0.001410
4916000,0.0324,0.013523,0.002678,0.000431,0.001645
4917000,0.0324,0.013523,0.002678,0.000431,0.001293
4918000,0.0324,0.013523,0.002678,0.000431,0.001528
4919000,0.0324,0.013523,0.002678,0.000431,0.001410
4920000,0.0324,0.013523,0.002678,0.000431,0.001293
4921000,0.0324,0.013523,0.002678,0.000431,0.001410
4922000,0.0324,0.013523,0.002678,0.000431,0.001293
4923000,0.0324,0.013523,0.002678,0.000431,0.001528
4924000,0.0324,0.013523,0.002678,0.000431,0.001293
4925000,0.0324,0.013523,0.002678,0.000431,0.001528
4926000,0.0324,0.013523,0.002678,0.000431,0.001175
4927000,0.0324,0.013523,0.002678,0.000431,0.001528
4928000,0.0324,0.013523,0.002678,0.000431,0.001410
4929000,0.0324,0.013523,0.002678,0.000431,0.001293
4930000,0.0324,0.013523,0.002678,0.000431,0.001410
4931000,0.0324,0.013523,0.002678,0.000431,0.001410
4932000,0.0324,0.013523,0.002678,0.000431,0.001410
4933000,0.0324,0.013523,0.002678,0.000431,0.001528
4934000,0.0324,0.013523,0.002678,0.000431,0.001410
4935000,0.0324,0.013523,0.002678,0.000431,0.001528
4936000,0.0324,0.013523,0.002678,0.000431,0.001175
4937000,0.0324,0.013523,0.002678,0.000431,0.001293
4938000,0.0324,0.013523,0.002678,0.000431,0.001645
4939000,0.0324,0.013523,0.002678,0.000431,0.001293
4940000,0.0324,0.013523,0.002678,0.000431,0.001293
4941000,0.0324,0.013523,0.002678,0.000431,0.001410
4942000,0.0324,0.013523,0.002678,0.000431,0.001293
4943000,0.0324,0.013523,0.002678,0.000431,0.001410
4944000,0.0324,0.013523,0.002678,0.000431,0.001528
4945000,0.0324,0.013523,0.002678,0.000431,0.001410
4946000,0.0324,0.013523,0.002678,0.000431,0.001410
4947000,0.0324,0.013523,0.002678,0.000431,0.001410
4948000,0.0324,0.013523,0.002678,0.000431,0.001528
4949000,0.0324,0.013523,0.002678,0.000431,0.001528
4950000,0.0324,0.013523,0.002678,0.000431,0.001410
4951000,0.0324,0.013523,0.002678,0.000431,0.001293
4952000,0.0324,0.013523,0.002678,0.000431,0.001528
4953000,0.0324,0.013523,0.002678,0.000431,0.001293
4954000,0.0324,0.013523,0.002678,0.000431,0.001528
4955000,0.0324,0.013523,0.002678,0.000431,0.001175
4956000,0.0324,0.013523,0.002678,0.000431,0.001410
4957000,0.0324,0.013523,0.002678,0.000431,0.001528
4958000,0.0324,0.013523,0.002678,0.000431,0.001175
4959000,0.0324,0.013523,0.002678,0.000431,0.001410
4960000,0.0324,0.013523,0.002678,0.000431,0.001293
4961000,0.0324,0.013523,0.002678,0.000431,0.001410
4962000,0.0324,0.013523,0.002678,0.000431,0.001645
4963000,0.0324,0.013523,0.002678,0.000431,0.001293
4964000,0.0324,0.013523,0.002678,0.000431,0.001528
4965000,0.0324,0.013523,0.002678,0.000431,0.001410
4966000,0.0324,0.013523,0.002678,0.000431,0.001410
4967000,0.0324,0.013523,0.002678,0.000431,0.001293
4968000,0.0324,0.013523,0.002678,0.000431,0.001410
4969000,0.0324,0.013523,0.002678,0.000431,0.001175
4970000,0.0324,0.013523,0.002678,0.000431,0.001293
4971000,0.0324,0.013523,0.002678,0.000431,0.001645
4972000,0.0324,0.013523,0.002678,0.000431,0.001293
4973000,0.0324,0.013523,0.002678,0.000431,0.001528
4974000,0.0324,0.013523,0.002678,0.000431,0.001410
4975000,0.0324,0.013523,0.002678,0.000431,0.001410
4976000,0.0324,0.013523,0.002678,0.000431,0.000940
4977000,0.0324,0.013523,0.002678,0.000431,0.001410
4978000,0.0324,0.013523,0.002678,0.000431,0.001410
4979000,0.0324,0.013523,0.002678,0.000431,0.001410
4980000,0.0324,0.013523,0.002678,0.000431,0.001410
4981000,0.0324,0.013523,0.002678,0.000431,0.001410
4982000,0.0324,0.013523,0.002678,0.000431,0.001528
4983000,0.0324,0.013523,0.002678,0.000431,0.001293
4984000,0.0324,0.013523,0.002678,0.000431,0.001293
4985000,0.0324,0.013523,0.002678,0.000431,0.001410
4986000,0.0324,0.013523,0.002678,0.000431,0.001528
4987000,0.0324,0.013523,0.002678,0.000431,0.001410
4988000,0.0324,0.013523,0.002678,0.000431,0.001293
4989000,0.0324,0.013523,0.002678,0.000431,0.001293
4990000,0.0324,0.013523,0.002678,0.000431,0.001410
4991000,0.0324,0.013523,0.002678,0.000431,0.001410
4992000,0.0324,0.013523,0.002678,0.000431,0.001175
4993000,0.0324,0.013523,0.002678,0.000431,0.001410
4994000,0.0324,0.013523,0.002678,0.000431,0.001410
4995000,0.0324,0.013523,0.002678,0.000431,0.001410
4996000,0.0324,0.013523,0.002678,0.000431,0.001293
4997000,0.0324,0.013523,0.002678,0.000431,0.001293
4998000,0.0324,0.013523,0.002678,0.000431,0.001293
4999000,0.0324,0.013523,0.002678,0.000431,0.001528
