Cycle,Area(mm^2),PeakDynamic(W),SubthresholdLeakage(W),GateLeakage(W),RunTimeDynamic(W)
9000000,0.0324,0.013523,0.002678,0.000431,0.023858
9001000,0.0324,0.013523,0.002678,0.000431,0.105423
9002000,0.0324,0.013523,0.002678,0.000431,0.038902
9003000,0.0324,0.013523,0.002678,0.000431,0.008462
9004000,0.0324,0.013523,0.002678,0.000431,0.004584
9005000,0.0324,0.013523,0.002678,0.000431,0.004701
9006000,0.0324,0.013523,0.002678,0.000431,0.004701
9007000,0.0324,0.013523,0.002678,0.000431,0.004701
9008000,0.0324,0.013523,0.002678,0.000431,0.117528
9009000,0.0324,0.013523,0.002678,0.000431,0.012223
9010000,0.0324,0.013523,0.002678,0.000431,0.004584
9011000,0.0324,0.013523,0.002678,0.000431,0.004584
9012000,0.0324,0.013523,0.002678,0.000431,0.004701
9013000,0.0324,0.013523,0.002678,0.000431,0.004701
9014000,0.0324,0.013523,0.002678,0.000431,0.004701
9015000,0.0324,0.013523,0.002678,0.000431,0.030440
9016000,0.0324,0.013523,0.002678,0.000431,0.060762
9017000,0.0324,0.013523,0.002678,0.000431,0.004701
9018000,0.0324,0.013523,0.002678,0.000431,0.004701
9019000,0.0324,0.013523,0.002678,0.000431,0.004701
9020000,0.0324,0.013523,0.002678,0.000431,0.004701
9021000,0.0324,0.013523,0.002678,0.000431,0.037962
9022000,0.0324,0.013523,0.002678,0.000431,0.061937
9023000,0.0324,0.013523,0.002678,0.000431,0.004701
9024000,0.0324,0.013523,0.002678,0.000431,0.004701
9025000,0.0324,0.013523,0.002678,0.000431,0.004701
9026000,0.0324,0.013523,0.002678,0.000431,0.004701
9027000,0.0324,0.013523,0.002678,0.000431,0.004701
9028000,0.0324,0.013523,0.002678,0.000431,0.004936
9029000,0.0324,0.013523,0.002678,0.000431,0.010695
9030000,0.0324,0.013523,0.002678,0.000431,0.006229
9031000,0.0324,0.013523,0.002678,0.000431,0.004466
9032000,0.0324,0.013523,0.002678,0.000431,0.004701
9033000,0.0324,0.013523,0.002678,0.000431,0.004701
9034000,0.0324,0.013523,0.002678,0.000431,0.005876
9035000,0.0324,0.013523,0.002678,0.000431,0.004701
9036000,0.0324,0.013523,0.002678,0.000431,0.027267
9037000,0.0324,0.013523,0.002678,0.000431,0.004701
9038000,0.0324,0.013523,0.002678,0.000431,0.004701
9039000,0.0324,0.013523,0.002678,0.000431,0.004584
9040000,0.0324,0.013523,0.002678,0.000431,0.004584
9041000,0.0324,0.013523,0.002678,0.000431,0.027031
9042000,0.0324,0.013523,0.002678,0.000431,0.049127
9043000,0.0324,0.013523,0.002678,0.000431,0.005289
9044000,0.0324,0.013523,0.002678,0.000431,0.004584
9045000,0.0324,0.013523,0.002678,0.000431,0.005876
9046000,0.0324,0.013523,0.002678,0.000431,0.004701
9047000,0.0324,0.013523,0.002678,0.000431,0.012223
9048000,0.0324,0.013523,0.002678,0.000431,0.004701
9049000,0.0324,0.013523,0.002678,0.000431,0.027267
9050000,0.0324,0.013523,0.002678,0.000431,0.004701
9051000,0.0324,0.013523,0.002678,0.000431,0.004701
9052000,0.0324,0.013523,0.002678,0.000431,0.004701
9053000,0.0324,0.013523,0.002678,0.000431,0.004701
9054000,0.0324,0.013523,0.002678,0.000431,0.019745
9055000,0.0324,0.013523,0.002678,0.000431,0.004701
9056000,0.0324,0.013523,0.002678,0.000431,0.004701
9057000,0.0324,0.013523,0.002678,0.000431,0.004701
9058000,0.0324,0.013523,0.002678,0.000431,0.019745
9059000,0.0324,0.013523,0.002678,0.000431,0.004701
9060000,0.0324,0.013523,0.002678,0.000431,0.004701
9061000,0.0324,0.013523,0.002678,0.000431,0.004701
9062000,0.0324,0.013523,0.002678,0.000431,0.019745
9063000,0.0324,0.013523,0.002678,0.000431,0.004701
9064000,0.0324,0.013523,0.002678,0.000431,0.008462
9065000,0.0324,0.013523,0.002678,0.000431,0.008462
9066000,0.0324,0.013523,0.002678,0.000431,0.007404
9067000,0.0324,0.013523,0.002678,0.000431,0.017512
9068000,0.0324,0.013523,0.002678,0.000431,0.004701
9069000,0.0324,0.013523,0.002678,0.000431,0.004701
9070000,0.0324,0.013523,0.002678,0.000431,0.004701
9071000,0.0324,0.013523,0.002678,0.000431,0.004466
9072000,0.0324,0.013523,0.002678,0.000431,0.004701
9073000,0.0324,0.013523,0.002678,0.000431,0.079214
9074000,0.0324,0.013523,0.002678,0.000431,0.020685
9075000,0.0324,0.013523,0.002678,0.000431,0.034788
9076000,0.0324,0.013523,0.002678,0.000431,0.004701
9077000,0.0324,0.013523,0.002678,0.000431,0.021978
9078000,0.0324,0.013523,0.002678,0.000431,0.070399
9079000,0.0324,0.013523,0.002678,0.000431,0.006817
9080000,0.0324,0.013523,0.002678,0.000431,0.047364
9081000,0.0324,0.013523,0.002678,0.000431,0.004584
9082000,0.0324,0.013523,0.002678,0.000431,0.004701
9083000,0.0324,0.013523,0.002678,0.000431,0.004584
9084000,0.0324,0.013523,0.002678,0.000431,0.027149
9085000,0.0324,0.013523,0.002678,0.000431,0.004701
9086000,0.0324,0.013523,0.002678,0.000431,0.070517
9087000,0.0324,0.013523,0.002678,0.000431,0.029617
9088000,0.0324,0.013523,0.002678,0.000431,0.004701
9089000,0.0324,0.013523,0.002678,0.000431,0.004701
9090000,0.0324,0.013523,0.002678,0.000431,0.004701
9091000,0.0324,0.013523,0.002678,0.000431,0.049832
9092000,0.0324,0.013523,0.002678,0.000431,0.013163
9093000,0.0324,0.013523,0.002678,0.000431,0.027267
9094000,0.0324,0.013523,0.002678,0.000431,0.034788
9095000,0.0324,0.013523,0.002678,0.000431,0.004701
9096000,0.0324,0.013523,0.002678,0.000431,0.004701
9097000,0.0324,0.013523,0.002678,0.000431,0.004819
9098000,0.0324,0.013523,0.002678,0.000431,0.004584
9099000,0.0324,0.013523,0.002678,0.000431,0.004701
9100000,0.0324,0.013523,0.002678,0.000431,0.008462
9101000,0.0324,0.013523,0.002678,0.000431,0.008462
9102000,0.0324,0.013523,0.002678,0.000431,0.004701
9103000,0.0324,0.013523,0.002678,0.000431,0.004701
9104000,0.0324,0.013523,0.002678,0.000431,0.004701
9105000,0.0324,0.013523,0.002678,0.000431,0.004701
9106000,0.0324,0.013523,0.002678,0.000431,0.004701
9107000,0.0324,0.013523,0.002678,0.000431,0.004701
9108000,0.0324,0.013523,0.002678,0.000431,0.004701
9109000,0.0324,0.013523,0.002678,0.000431,0.004701
9110000,0.0324,0.013523,0.002678,0.000431,0.012223
9111000,0.0324,0.013523,0.002678,0.000431,0.042075
9112000,0.0324,0.013523,0.002678,0.000431,0.004701
9113000,0.0324,0.013523,0.002678,0.000431,0.012223
9114000,0.0324,0.013523,0.002678,0.000431,0.004701
9115000,0.0324,0.013523,0.002678,0.000431,0.004701
9116000,0.0324,0.013523,0.002678,0.000431,0.004701
9117000,0.0324,0.013523,0.002678,0.000431,0.004701
9118000,0.0324,0.013523,0.002678,0.000431,0.004701
9119000,0.0324,0.013523,0.002678,0.000431,0.012223
9120000,0.0324,0.013523,0.002678,0.000431,0.057119
9121000,0.0324,0.013523,0.002678,0.000431,0.019510
9122000,0.0324,0.013523,0.002678,0.000431,0.004701
9123000,0.0324,0.013523,0.002678,0.000431,0.027502
9124000,0.0324,0.013523,0.002678,0.000431,0.027267
9125000,0.0324,0.013523,0.002678,0.000431,0.015984
9126000,0.0324,0.013523,0.002678,0.000431,0.008462
9127000,0.0324,0.013523,0.002678,0.000431,0.034788
9128000,0.0324,0.013523,0.002678,0.000431,0.004701
9129000,0.0324,0.013523,0.002678,0.000431,0.008462
9130000,0.0324,0.013523,0.002678,0.000431,0.008462
9131000,0.0324,0.013523,0.002678,0.000431,0.019745
9132000,0.0324,0.013523,0.002678,0.000431,0.004701
9133000,0.0324,0.013523,0.002678,0.000431,0.012223
9134000,0.0324,0.013523,0.002678,0.000431,0.012223
9135000,0.0324,0.013523,0.002678,0.000431,0.004701
9136000,0.0324,0.013523,0.002678,0.000431,0.064876
9137000,0.0324,0.013523,0.002678,0.000431,0.023388
9138000,0.0324,0.013523,0.002678,0.000431,0.015866
9139000,0.0324,0.013523,0.002678,0.000431,0.004701
9140000,0.0324,0.013523,0.002678,0.000431,0.027267
9141000,0.0324,0.013523,0.002678,0.000431,0.004701
9142000,0.0324,0.013523,0.002678,0.000431,0.004701
9143000,0.0324,0.013523,0.002678,0.000431,0.004701
9144000,0.0324,0.013523,0.002678,0.000431,0.004701
9145000,0.0324,0.013523,0.002678,0.000431,0.004701
9146000,0.0324,0.013523,0.002678,0.000431,0.023506
9147000,0.0324,0.013523,0.002678,0.000431,0.008462
9148000,0.0324,0.013523,0.002678,0.000431,0.004701
9149000,0.0324,0.013523,0.002678,0.000431,0.004701
9150000,0.0324,0.013523,0.002678,0.000431,0.004701
9151000,0.0324,0.013523,0.002678,0.000431,0.004466
9152000,0.0324,0.013523,0.002678,0.000431,0.004701
9153000,0.0324,0.013523,0.002678,0.000431,0.019745
9154000,0.0324,0.013523,0.002678,0.000431,0.004701
9155000,0.0324,0.013523,0.002678,0.000431,0.022683
9156000,0.0324,0.013523,0.002678,0.000431,0.016807
9157000,0.0324,0.013523,0.002678,0.000431,0.004701
9158000,0.0324,0.013523,0.002678,0.000431,0.012223
9159000,0.0324,0.013523,0.002678,0.000431,0.004701
9160000,0.0324,0.013523,0.002678,0.000431,0.019392
9161000,0.0324,0.013523,0.002678,0.000431,0.004584
9162000,0.0324,0.013523,0.002678,0.000431,0.004701
9163000,0.0324,0.013523,0.002678,0.000431,0.054651
9164000,0.0324,0.013523,0.002678,0.000431,0.067579
9165000,0.0324,0.013523,0.002678,0.000431,0.004701
9166000,0.0324,0.013523,0.002678,0.000431,0.096256
9167000,0.0324,0.013523,0.002678,0.000431,0.018452
9168000,0.0324,0.013523,0.002678,0.000431,0.004701
9169000,0.0324,0.013523,0.002678,0.000431,0.004701
9170000,0.0324,0.013523,0.002678,0.000431,0.012223
9171000,0.0324,0.013523,0.002678,0.000431,0.004701
9172000,0.0324,0.013523,0.002678,0.000431,0.004701
9173000,0.0324,0.013523,0.002678,0.000431,0.004701
9174000,0.0324,0.013523,0.002678,0.000431,0.004701
9175000,0.0324,0.013523,0.002678,0.000431,0.057354
9176000,0.0324,0.013523,0.002678,0.000431,0.019745
9177000,0.0324,0.013523,0.002678,0.000431,0.050655
9178000,0.0324,0.013523,0.002678,0.000431,0.018687
9179000,0.0324,0.013523,0.002678,0.000431,0.004701
9180000,0.0324,0.013523,0.002678,0.000431,0.004701
9181000,0.0324,0.013523,0.002678,0.000431,0.012223
9182000,0.0324,0.013523,0.002678,0.000431,0.009637
9183000,0.0324,0.013523,0.002678,0.000431,0.032908
9184000,0.0324,0.013523,0.002678,0.000431,0.175352
9185000,0.0324,0.013523,0.002678,0.000431,0.049127
9186000,0.0324,0.013523,0.002678,0.000431,0.004701
9187000,0.0324,0.013523,0.002678,0.000431,0.004701
9188000,0.0324,0.013523,0.002678,0.000431,0.012223
9189000,0.0324,0.013523,0.002678,0.000431,0.004701
9190000,0.0324,0.013523,0.002678,0.000431,0.004701
9191000,0.0324,0.013523,0.002678,0.000431,0.050067
9192000,0.0324,0.013523,0.002678,0.000431,0.011753
9193000,0.0324,0.013523,0.002678,0.000431,0.004701
9194000,0.0324,0.013523,0.002678,0.000431,0.080624
9195000,0.0324,0.013523,0.002678,0.000431,0.026561
9196000,0.0324,0.013523,0.002678,0.000431,0.004701
9197000,0.0324,0.013523,0.002678,0.000431,0.035494
9198000,0.0324,0.013523,0.002678,0.000431,0.011518
9199000,0.0324,0.013523,0.002678,0.000431,0.004466
9200000,0.0324,0.013523,0.002678,0.000431,0.004466
9201000,0.0324,0.013523,0.002678,0.000431,0.042310
9202000,0.0324,0.013523,0.002678,0.000431,0.004701
9203000,0.0324,0.013523,0.002678,0.000431,0.043250
9204000,0.0324,0.013523,0.002678,0.000431,0.048892
9205000,0.0324,0.013523,0.002678,0.000431,0.004701
9206000,0.0324,0.013523,0.002678,0.000431,0.004701
9207000,0.0324,0.013523,0.002678,0.000431,0.004701
9208000,0.0324,0.013523,0.002678,0.000431,0.019745
9209000,0.0324,0.013523,0.002678,0.000431,0.004701
9210000,0.0324,0.013523,0.002678,0.000431,0.027267
9211000,0.0324,0.013523,0.002678,0.000431,0.012223
9212000,0.0324,0.013523,0.002678,0.000431,0.004701
9213000,0.0324,0.013523,0.002678,0.000431,0.004701
9214000,0.0324,0.013523,0.002678,0.000431,0.068166
9215000,0.0324,0.013523,0.002678,0.000431,0.023976
9216000,0.0324,0.013523,0.002678,0.000431,0.005289
9217000,0.0324,0.013523,0.002678,0.000431,0.034201
9218000,0.0324,0.013523,0.002678,0.000431,0.004466
9219000,0.0324,0.013523,0.002678,0.000431,0.004701
9220000,0.0324,0.013523,0.002678,0.000431,0.004701
9221000,0.0324,0.013523,0.002678,0.000431,0.027267
9222000,0.0324,0.013523,0.002678,0.000431,0.004701
9223000,0.0324,0.013523,0.002678,0.000431,0.004701
9224000,0.0324,0.013523,0.002678,0.000431,0.019745
9225000,0.0324,0.013523,0.002678,0.000431,0.046659
9226000,0.0324,0.013523,0.002678,0.000431,0.037962
9227000,0.0324,0.013523,0.002678,0.000431,0.004701
9228000,0.0324,0.013523,0.002678,0.000431,0.019745
9229000,0.0324,0.013523,0.002678,0.000431,0.004701
9230000,0.0324,0.013523,0.002678,0.000431,0.049832
9231000,0.0324,0.013523,0.002678,0.000431,0.016571
9232000,0.0324,0.013523,0.002678,0.000431,0.007639
9233000,0.0324,0.013523,0.002678,0.000431,0.004701
9234000,0.0324,0.013523,0.002678,0.000431,0.004701
9235000,0.0324,0.013523,0.002678,0.000431,0.042310
9236000,0.0324,0.013523,0.002678,0.000431,0.148791
9237000,0.0324,0.013523,0.002678,0.000431,0.011048
9238000,0.0324,0.013523,0.002678,0.000431,0.034788
9239000,0.0324,0.013523,0.002678,0.000431,0.004466
9240000,0.0324,0.013523,0.002678,0.000431,0.004466
9241000,0.0324,0.013523,0.002678,0.000431,0.027267
9242000,0.0324,0.013523,0.002678,0.000431,0.004701
9243000,0.0324,0.013523,0.002678,0.000431,0.012223
9244000,0.0324,0.013523,0.002678,0.000431,0.072397
9245000,0.0324,0.013523,0.002678,0.000431,0.004701
9246000,0.0324,0.013523,0.002678,0.000431,0.004701
9247000,0.0324,0.013523,0.002678,0.000431,0.057354
9248000,0.0324,0.013523,0.002678,0.000431,0.012223
9249000,0.0324,0.013523,0.002678,0.000431,0.004701
9250000,0.0324,0.013523,0.002678,0.000431,0.012223
9251000,0.0324,0.013523,0.002678,0.000431,0.027267
9252000,0.0324,0.013523,0.002678,0.000431,0.004701
9253000,0.0324,0.013523,0.002678,0.000431,0.004701
9254000,0.0324,0.013523,0.002678,0.000431,0.038549
9255000,0.0324,0.013523,0.002678,0.000431,0.015984
9256000,0.0324,0.013523,0.002678,0.000431,0.004701
9257000,0.0324,0.013523,0.002678,0.000431,0.032438
9258000,0.0324,0.013523,0.002678,0.000431,0.036904
9259000,0.0324,0.013523,0.002678,0.000431,0.004701
9260000,0.0324,0.013523,0.002678,0.000431,0.027031
9261000,0.0324,0.013523,0.002678,0.000431,0.027502
9262000,0.0324,0.013523,0.002678,0.000431,0.004701
9263000,0.0324,0.013523,0.002678,0.000431,0.004701
9264000,0.0324,0.013523,0.002678,0.000431,0.049832
9265000,0.0324,0.013523,0.002678,0.000431,0.004701
9266000,0.0324,0.013523,0.002678,0.000431,0.004701
9267000,0.0324,0.013523,0.002678,0.000431,0.004701
9268000,0.0324,0.013523,0.002678,0.000431,0.012223
9269000,0.0324,0.013523,0.002678,0.000431,0.020920
9270000,0.0324,0.013523,0.002678,0.000431,0.033613
9271000,0.0324,0.013523,0.002678,0.000431,0.019510
9272000,0.0324,0.013523,0.002678,0.000431,0.004701
9273000,0.0324,0.013523,0.002678,0.000431,0.004701
9274000,0.0324,0.013523,0.002678,0.000431,0.004701
9275000,0.0324,0.013523,0.002678,0.000431,0.012223
9276000,0.0324,0.013523,0.002678,0.000431,0.004701
9277000,0.0324,0.013523,0.002678,0.000431,0.032085
9278000,0.0324,0.013523,0.002678,0.000431,0.007404
9279000,0.0324,0.013523,0.002678,0.000431,0.004584
9280000,0.0324,0.013523,0.002678,0.000431,0.011870
9281000,0.0324,0.013523,0.002678,0.000431,0.004701
9282000,0.0324,0.013523,0.002678,0.000431,0.034788
9283000,0.0324,0.013523,0.002678,0.000431,0.020685
9284000,0.0324,0.013523,0.002678,0.000431,0.018805
9285000,0.0324,0.013523,0.002678,0.000431,0.004701
9286000,0.0324,0.013523,0.002678,0.000431,0.012223
9287000,0.0324,0.013523,0.002678,0.000431,0.019745
9288000,0.0324,0.013523,0.002678,0.000431,0.012223
9289000,0.0324,0.013523,0.002678,0.000431,0.004701
9290000,0.0324,0.013523,0.002678,0.000431,0.076863
9291000,0.0324,0.013523,0.002678,0.000431,0.060409
9292000,0.0324,0.013523,0.002678,0.000431,0.004701
9293000,0.0324,0.013523,0.002678,0.000431,0.004701
9294000,0.0324,0.013523,0.002678,0.000431,0.004701
9295000,0.0324,0.013523,0.002678,0.000431,0.019745
9296000,0.0324,0.013523,0.002678,0.000431,0.004701
9297000,0.0324,0.013523,0.002678,0.000431,0.004701
9298000,0.0324,0.013523,0.002678,0.000431,0.004466
9299000,0.0324,0.013523,0.002678,0.000431,0.004701
9300000,0.0324,0.013523,0.002678,0.000431,0.049832
9301000,0.0324,0.013523,0.002678,0.000431,0.008462
9302000,0.0324,0.013523,0.002678,0.000431,0.038549
9303000,0.0324,0.013523,0.002678,0.000431,0.004701
9304000,0.0324,0.013523,0.002678,0.000431,0.034788
9305000,0.0324,0.013523,0.002678,0.000431,0.019745
9306000,0.0324,0.013523,0.002678,0.000431,0.004701
9307000,0.0324,0.013523,0.002678,0.000431,0.004701
9308000,0.0324,0.013523,0.002678,0.000431,0.004701
9309000,0.0324,0.013523,0.002678,0.000431,0.004466
9310000,0.0324,0.013523,0.002678,0.000431,0.087441
9311000,0.0324,0.013523,0.002678,0.000431,0.004466
9312000,0.0324,0.013523,0.002678,0.000431,0.004701
9313000,0.0324,0.013523,0.002678,0.000431,0.064876
9314000,0.0324,0.013523,0.002678,0.000431,0.004701
9315000,0.0324,0.013523,0.002678,0.000431,0.049597
9316000,0.0324,0.013523,0.002678,0.000431,0.004701
9317000,0.0324,0.013523,0.002678,0.000431,0.004936
9318000,0.0324,0.013523,0.002678,0.000431,0.004701
9319000,0.0324,0.013523,0.002678,0.000431,0.012223
9320000,0.0324,0.013523,0.002678,0.000431,0.012223
9321000,0.0324,0.013523,0.002678,0.000431,0.012223
9322000,0.0324,0.013523,0.002678,0.000431,0.079919
9323000,0.0324,0.013523,0.002678,0.000431,0.031027
9324000,0.0324,0.013523,0.002678,0.000431,0.008462
9325000,0.0324,0.013523,0.002678,0.000431,0.004701
9326000,0.0324,0.013523,0.002678,0.000431,0.019745
9327000,0.0324,0.013523,0.002678,0.000431,0.004701
9328000,0.0324,0.013523,0.002678,0.000431,0.004701
9329000,0.0324,0.013523,0.002678,0.000431,0.015866
9330000,0.0324,0.013523,0.002678,0.000431,0.068989
9331000,0.0324,0.013523,0.002678,0.000431,0.004701
9332000,0.0324,0.013523,0.002678,0.000431,0.004701
9333000,0.0324,0.013523,0.002678,0.000431,0.012223
9334000,0.0324,0.013523,0.002678,0.000431,0.004701
9335000,0.0324,0.013523,0.002678,0.000431,0.027502
9336000,0.0324,0.013523,0.002678,0.000431,0.042310
9337000,0.0324,0.013523,0.002678,0.000431,0.004701
9338000,0.0324,0.013523,0.002678,0.000431,0.004584
9339000,0.0324,0.013523,0.002678,0.000431,0.019627
9340000,0.0324,0.013523,0.002678,0.000431,0.004701
9341000,0.0324,0.013523,0.002678,0.000431,0.004701
9342000,0.0324,0.013523,0.002678,0.000431,0.004701
9343000,0.0324,0.013523,0.002678,0.000431,0.035023
9344000,0.0324,0.013523,0.002678,0.000431,0.004701
9345000,0.0324,0.013523,0.002678,0.000431,0.008227
9346000,0.0324,0.013523,0.002678,0.000431,0.015984
9347000,0.0324,0.013523,0.002678,0.000431,0.027267
9348000,0.0324,0.013523,0.002678,0.000431,0.004584
9349000,0.0324,0.013523,0.002678,0.000431,0.027384
9350000,0.0324,0.013523,0.002678,0.000431,0.109771
9351000,0.0324,0.013523,0.002678,0.000431,0.004701
9352000,0.0324,0.013523,0.002678,0.000431,0.066756
9353000,0.0324,0.013523,0.002678,0.000431,0.017629
9354000,0.0324,0.013523,0.002678,0.000431,0.004701
9355000,0.0324,0.013523,0.002678,0.000431,0.004701
9356000,0.0324,0.013523,0.002678,0.000431,0.042545
9357000,0.0324,0.013523,0.002678,0.000431,0.004701
9358000,0.0324,0.013523,0.002678,0.000431,0.004701
9359000,0.0324,0.013523,0.002678,0.000431,0.004701
9360000,0.0324,0.013523,0.002678,0.000431,0.004701
9361000,0.0324,0.013523,0.002678,0.000431,0.004701
9362000,0.0324,0.013523,0.002678,0.000431,0.019745
9363000,0.0324,0.013523,0.002678,0.000431,0.004701
9364000,0.0324,0.013523,0.002678,0.000431,0.004701
9365000,0.0324,0.013523,0.002678,0.000431,0.030087
9366000,0.0324,0.013523,0.002678,0.000431,0.009402
9367000,0.0324,0.013523,0.002678,0.000431,0.065111
9368000,0.0324,0.013523,0.002678,0.000431,0.004701
9369000,0.0324,0.013523,0.002678,0.000431,0.140916
9370000,0.0324,0.013523,0.002678,0.000431,0.026209
9371000,0.0324,0.013523,0.002678,0.000431,0.004701
9372000,0.0324,0.013523,0.002678,0.000431,0.034788
9373000,0.0324,0.013523,0.002678,0.000431,0.011635
9374000,0.0324,0.013523,0.002678,0.000431,0.005289
9375000,0.0324,0.013523,0.002678,0.000431,0.004701
9376000,0.0324,0.013523,0.002678,0.000431,0.135392
9377000,0.0324,0.013523,0.002678,0.000431,0.016924
9378000,0.0324,0.013523,0.002678,0.000431,0.007052
9379000,0.0324,0.013523,0.002678,0.000431,0.032438
9380000,0.0324,0.013523,0.002678,0.000431,0.110006
9381000,0.0324,0.013523,0.002678,0.000431,0.019745
9382000,0.0324,0.013523,0.002678,0.000431,0.012105
9383000,0.0324,0.013523,0.002678,0.000431,0.094845
9384000,0.0324,0.013523,0.002678,0.000431,0.004701
9385000,0.0324,0.013523,0.002678,0.000431,0.027267
9386000,0.0324,0.013523,0.002678,0.000431,0.004701
9387000,0.0324,0.013523,0.002678,0.000431,0.019745
9388000,0.0324,0.013523,0.002678,0.000431,0.011988
9389000,0.0324,0.013523,0.002678,0.000431,0.012223
9390000,0.0324,0.013523,0.002678,0.000431,0.012223
9391000,0.0324,0.013523,0.002678,0.000431,0.004701
9392000,0.0324,0.013523,0.002678,0.000431,0.087441
9393000,0.0324,0.013523,0.002678,0.000431,0.004936
9394000,0.0324,0.013523,0.002678,0.000431,0.004701
9395000,0.0324,0.013523,0.002678,0.000431,0.004936
9396000,0.0324,0.013523,0.002678,0.000431,0.034788
9397000,0.0324,0.013523,0.002678,0.000431,0.004701
9398000,0.0324,0.013523,0.002678,0.000431,0.019157
9399000,0.0324,0.013523,0.002678,0.000431,0.043133
9400000,0.0324,0.013523,0.002678,0.000431,0.004819
9401000,0.0324,0.013523,0.002678,0.000431,0.019392
9402000,0.0324,0.013523,0.002678,0.000431,0.012223
9403000,0.0324,0.013523,0.002678,0.000431,0.125755
9404000,0.0324,0.013523,0.002678,0.000431,0.034083
9405000,0.0324,0.013523,0.002678,0.000431,0.071927
9406000,0.0324,0.013523,0.002678,0.000431,0.005406
9407000,0.0324,0.013523,0.002678,0.000431,0.062407
9408000,0.0324,0.013523,0.002678,0.000431,0.075218
9409000,0.0324,0.013523,0.002678,0.000431,0.019627
9410000,0.0324,0.013523,0.002678,0.000431,0.034788
9411000,0.0324,0.013523,0.002678,0.000431,0.004584
9412000,0.0324,0.013523,0.002678,0.000431,0.012105
9413000,0.0324,0.013523,0.002678,0.000431,0.004701
9414000,0.0324,0.013523,0.002678,0.000431,0.049832
9415000,0.0324,0.013523,0.002678,0.000431,0.004701
9416000,0.0324,0.013523,0.002678,0.000431,0.009050
9417000,0.0324,0.013523,0.002678,0.000431,0.090614
9418000,0.0324,0.013523,0.002678,0.000431,0.050185
9419000,0.0324,0.013523,0.002678,0.000431,0.072515
9420000,0.0324,0.013523,0.002678,0.000431,0.004701
9421000,0.0324,0.013523,0.002678,0.000431,0.009050
9422000,0.0324,0.013523,0.002678,0.000431,0.037844
9423000,0.0324,0.013523,0.002678,0.000431,0.085208
9424000,0.0324,0.013523,0.002678,0.000431,0.007287
9425000,0.0324,0.013523,0.002678,0.000431,0.037844
9426000,0.0324,0.013523,0.002678,0.000431,0.042310
9427000,0.0324,0.013523,0.002678,0.000431,0.065698
9428000,0.0324,0.013523,0.002678,0.000431,0.016101
9429000,0.0324,0.013523,0.002678,0.000431,0.020215
9430000,0.0324,0.013523,0.002678,0.000431,0.041840
9431000,0.0324,0.013523,0.002678,0.000431,0.004701
9432000,0.0324,0.013523,0.002678,0.000431,0.042310
9433000,0.0324,0.013523,0.002678,0.000431,0.004701
9434000,0.0324,0.013523,0.002678,0.000431,0.052888
9435000,0.0324,0.013523,0.002678,0.000431,0.031498
9436000,0.0324,0.013523,0.002678,0.000431,0.004584
9437000,0.0324,0.013523,0.002678,0.000431,0.004584
9438000,0.0324,0.013523,0.002678,0.000431,0.072515
9439000,0.0324,0.013523,0.002678,0.000431,0.012105
9440000,0.0324,0.013523,0.002678,0.000431,0.004701
9441000,0.0324,0.013523,0.002678,0.000431,0.057354
9442000,0.0324,0.013523,0.002678,0.000431,0.012223
9443000,0.0324,0.013523,0.002678,0.000431,0.042310
9444000,0.0324,0.013523,0.002678,0.000431,0.004701
9445000,0.0324,0.013523,0.002678,0.000431,0.004701
9446000,0.0324,0.013523,0.002678,0.000431,0.004701
9447000,0.0324,0.013523,0.002678,0.000431,0.008462
9448000,0.0324,0.013523,0.002678,0.000431,0.008462
9449000,0.0324,0.013523,0.002678,0.000431,0.042310
9450000,0.0324,0.013523,0.002678,0.000431,0.049714
9451000,0.0324,0.013523,0.002678,0.000431,0.004584
9452000,0.0324,0.013523,0.002678,0.000431,0.027267
9453000,0.0324,0.013523,0.002678,0.000431,0.004701
9454000,0.0324,0.013523,0.002678,0.000431,0.004701
9455000,0.0324,0.013523,0.002678,0.000431,0.012223
9456000,0.0324,0.013523,0.002678,0.000431,0.038549
9457000,0.0324,0.013523,0.002678,0.000431,0.032085
9458000,0.0324,0.013523,0.002678,0.000431,0.026209
9459000,0.0324,0.013523,0.002678,0.000431,0.019745
9460000,0.0324,0.013523,0.002678,0.000431,0.027502
9461000,0.0324,0.013523,0.002678,0.000431,0.004701
9462000,0.0324,0.013523,0.002678,0.000431,0.008462
9463000,0.0324,0.013523,0.002678,0.000431,0.008462
9464000,0.0324,0.013523,0.002678,0.000431,0.027267
9465000,0.0324,0.013523,0.002678,0.000431,0.034788
9466000,0.0324,0.013523,0.002678,0.000431,0.029029
9467000,0.0324,0.013523,0.002678,0.000431,0.033025
9468000,0.0324,0.013523,0.002678,0.000431,0.008580
9469000,0.0324,0.013523,0.002678,0.000431,0.016101
9470000,0.0324,0.013523,0.002678,0.000431,0.004701
9471000,0.0324,0.013523,0.002678,0.000431,0.019510
9472000,0.0324,0.013523,0.002678,0.000431,0.015984
9473000,0.0324,0.013523,0.002678,0.000431,0.031027
9474000,0.0324,0.013523,0.002678,0.000431,0.042310
9475000,0.0324,0.013523,0.002678,0.000431,0.008462
9476000,0.0324,0.013523,0.002678,0.000431,0.008345
9477000,0.0324,0.013523,0.002678,0.000431,0.012105
9478000,0.0324,0.013523,0.002678,0.000431,0.004584
9479000,0.0324,0.013523,0.002678,0.000431,0.012105
9480000,0.0324,0.013523,0.002678,0.000431,0.057354
9481000,0.0324,0.013523,0.002678,0.000431,0.004701
9482000,0.0324,0.013523,0.002678,0.000431,0.031027
9483000,0.0324,0.013523,0.002678,0.000431,0.019980
9484000,0.0324,0.013523,0.002678,0.000431,0.038314
9485000,0.0324,0.013523,0.002678,0.000431,0.004701
9486000,0.0324,0.013523,0.002678,0.000431,0.004701
9487000,0.0324,0.013523,0.002678,0.000431,0.004701
9488000,0.0324,0.013523,0.002678,0.000431,0.103542
9489000,0.0324,0.013523,0.002678,0.000431,0.033496
9490000,0.0324,0.013523,0.002678,0.000431,0.027267
9491000,0.0324,0.013523,0.002678,0.000431,0.004466
9492000,0.0324,0.013523,0.002678,0.000431,0.008227
9493000,0.0324,0.013523,0.002678,0.000431,0.015984
9494000,0.0324,0.013523,0.002678,0.000431,0.004701
9495000,0.0324,0.013523,0.002678,0.000431,0.049832
9496000,0.0324,0.013523,0.002678,0.000431,0.004936
9497000,0.0324,0.013523,0.002678,0.000431,0.004701
9498000,0.0324,0.013523,0.002678,0.000431,0.004701
9499000,0.0324,0.013523,0.002678,0.000431,0.004701
9500000,0.0324,0.013523,0.002678,0.000431,0.029617
9501000,0.0324,0.013523,0.002678,0.000431,0.024916
9502000,0.0324,0.013523,0.002678,0.000431,0.016101
9503000,0.0324,0.013523,0.002678,0.000431,0.060997
9504000,0.0324,0.013523,0.002678,0.000431,0.004701
9505000,0.0324,0.013523,0.002678,0.000431,0.004701
9506000,0.0324,0.013523,0.002678,0.000431,0.018334
9507000,0.0324,0.013523,0.002678,0.000431,0.013633
9508000,0.0324,0.013523,0.002678,0.000431,0.004701
9509000,0.0324,0.013523,0.002678,0.000431,0.004584
9510000,0.0324,0.013523,0.002678,0.000431,0.079802
9511000,0.0324,0.013523,0.002678,0.000431,0.004466
9512000,0.0324,0.013523,0.002678,0.000431,0.004701
9513000,0.0324,0.013523,0.002678,0.000431,0.034788
9514000,0.0324,0.013523,0.002678,0.000431,0.012223
9515000,0.0324,0.013523,0.002678,0.000431,0.057354
9516000,0.0324,0.013523,0.002678,0.000431,0.004701
9517000,0.0324,0.013523,0.002678,0.000431,0.004701
9518000,0.0324,0.013523,0.002678,0.000431,0.004701
9519000,0.0324,0.013523,0.002678,0.000431,0.004701
9520000,0.0324,0.013523,0.002678,0.000431,0.019745
9521000,0.0324,0.013523,0.002678,0.000431,0.019745
9522000,0.0324,0.013523,0.002678,0.000431,0.004701
9523000,0.0324,0.013523,0.002678,0.000431,0.019745
9524000,0.0324,0.013523,0.002678,0.000431,0.004701
9525000,0.0324,0.013523,0.002678,0.000431,0.004701
9526000,0.0324,0.013523,0.002678,0.000431,0.008462
9527000,0.0324,0.013523,0.002678,0.000431,0.025739
9528000,0.0324,0.013523,0.002678,0.000431,0.032790
9529000,0.0324,0.013523,0.002678,0.000431,0.021390
9530000,0.0324,0.013523,0.002678,0.000431,0.070517
9531000,0.0324,0.013523,0.002678,0.000431,0.004701
9532000,0.0324,0.013523,0.002678,0.000431,0.004701
9533000,0.0324,0.013523,0.002678,0.000431,0.004701
9534000,0.0324,0.013523,0.002678,0.000431,0.031027
9535000,0.0324,0.013523,0.002678,0.000431,0.008462
9536000,0.0324,0.013523,0.002678,0.000431,0.052653
9537000,0.0324,0.013523,0.002678,0.000431,0.009637
9538000,0.0324,0.013523,0.002678,0.000431,0.060880
9539000,0.0324,0.013523,0.002678,0.000431,0.008462
9540000,0.0324,0.013523,0.002678,0.000431,0.033496
9541000,0.0324,0.013523,0.002678,0.000431,0.013516
9542000,0.0324,0.013523,0.002678,0.000431,0.004701
9543000,0.0324,0.013523,0.002678,0.000431,0.004701
9544000,0.0324,0.013523,0.002678,0.000431,0.004701
9545000,0.0324,0.013523,0.002678,0.000431,0.004701
9546000,0.0324,0.013523,0.002678,0.000431,0.004701
9547000,0.0324,0.013523,0.002678,0.000431,0.078391
9548000,0.0324,0.013523,0.002678,0.000431,0.028794
9549000,0.0324,0.013523,0.002678,0.000431,0.004701
9550000,0.0324,0.013523,0.002678,0.000431,0.004466
9551000,0.0324,0.013523,0.002678,0.000431,0.019745
9552000,0.0324,0.013523,0.002678,0.000431,0.004701
9553000,0.0324,0.013523,0.002678,0.000431,0.020332
9554000,0.0324,0.013523,0.002678,0.000431,0.064288
9555000,0.0324,0.013523,0.002678,0.000431,0.007287
9556000,0.0324,0.013523,0.002678,0.000431,0.017159
9557000,0.0324,0.013523,0.002678,0.000431,0.012105
9558000,0.0324,0.013523,0.002678,0.000431,0.011870
9559000,0.0324,0.013523,0.002678,0.000431,0.004701
9560000,0.0324,0.013523,0.002678,0.000431,0.011988
9561000,0.0324,0.013523,0.002678,0.000431,0.004701
9562000,0.0324,0.013523,0.002678,0.000431,0.049832
9563000,0.0324,0.013523,0.002678,0.000431,0.004701
9564000,0.0324,0.013523,0.002678,0.000431,0.027502
9565000,0.0324,0.013523,0.002678,0.000431,0.004701
9566000,0.0324,0.013523,0.002678,0.000431,0.004701
9567000,0.0324,0.013523,0.002678,0.000431,0.072397
9568000,0.0324,0.013523,0.002678,0.000431,0.004701
9569000,0.0324,0.013523,0.002678,0.000431,0.004701
9570000,0.0324,0.013523,0.002678,0.000431,0.008462
9571000,0.0324,0.013523,0.002678,0.000431,0.008462
9572000,0.0324,0.013523,0.002678,0.000431,0.004701
9573000,0.0324,0.013523,0.002678,0.000431,0.059587
9574000,0.0324,0.013523,0.002678,0.000431,0.032555
9575000,0.0324,0.013523,0.002678,0.000431,0.056414
9576000,0.0324,0.013523,0.002678,0.000431,0.020685
9577000,0.0324,0.013523,0.002678,0.000431,0.034788
9578000,0.0324,0.013523,0.002678,0.000431,0.004701
9579000,0.0324,0.013523,0.002678,0.000431,0.015279
9580000,0.0324,0.013523,0.002678,0.000431,0.031733
9581000,0.0324,0.013523,0.002678,0.000431,0.004701
9582000,0.0324,0.013523,0.002678,0.000431,0.004701
9583000,0.0324,0.013523,0.002678,0.000431,0.008345
9584000,0.0324,0.013523,0.002678,0.000431,0.061232
9585000,0.0324,0.013523,0.002678,0.000431,0.004466
9586000,0.0324,0.013523,0.002678,0.000431,0.055943
9587000,0.0324,0.013523,0.002678,0.000431,0.021155
9588000,0.0324,0.013523,0.002678,0.000431,0.060057
9589000,0.0324,0.013523,0.002678,0.000431,0.024563
9590000,0.0324,0.013523,0.002678,0.000431,0.012105
9591000,0.0324,0.013523,0.002678,0.000431,0.004584
9592000,0.0324,0.013523,0.002678,0.000431,0.004701
9593000,0.0324,0.013523,0.002678,0.000431,0.103895
9594000,0.0324,0.013523,0.002678,0.000431,0.032790
9595000,0.0324,0.013523,0.002678,0.000431,0.004584
9596000,0.0324,0.013523,0.002678,0.000431,0.021390
9597000,0.0324,0.013523,0.002678,0.000431,0.070752
9598000,0.0324,0.013523,0.002678,0.000431,0.004466
9599000,0.0324,0.013523,0.002678,0.000431,0.042310
9600000,0.0324,0.013523,0.002678,0.000431,0.012223
9601000,0.0324,0.013523,0.002678,0.000431,0.012223
9602000,0.0324,0.013523,0.002678,0.000431,0.012223
9603000,0.0324,0.013523,0.002678,0.000431,0.004701
9604000,0.0324,0.013523,0.002678,0.000431,0.004701
9605000,0.0324,0.013523,0.002678,0.000431,0.004701
9606000,0.0324,0.013523,0.002678,0.000431,0.004701
9607000,0.0324,0.013523,0.002678,0.000431,0.004701
9608000,0.0324,0.013523,0.002678,0.000431,0.019745
9609000,0.0324,0.013523,0.002678,0.000431,0.004701
9610000,0.0324,0.013523,0.002678,0.000431,0.004701
9611000,0.0324,0.013523,0.002678,0.000431,0.004701
9612000,0.0324,0.013523,0.002678,0.000431,0.034788
9613000,0.0324,0.013523,0.002678,0.000431,0.012223
9614000,0.0324,0.013523,0.002678,0.000431,0.012223
9615000,0.0324,0.013523,0.002678,0.000431,0.019745
9616000,0.0324,0.013523,0.002678,0.000431,0.042310
9617000,0.0324,0.013523,0.002678,0.000431,0.004701
9618000,0.0324,0.013523,0.002678,0.000431,0.004701
9619000,0.0324,0.013523,0.002678,0.000431,0.004701
9620000,0.0324,0.013523,0.002678,0.000431,0.012223
9621000,0.0324,0.013523,0.002678,0.000431,0.012223
9622000,0.0324,0.013523,0.002678,0.000431,0.004701
9623000,0.0324,0.013523,0.002678,0.000431,0.004701
9624000,0.0324,0.013523,0.002678,0.000431,0.004701
9625000,0.0324,0.013523,0.002678,0.000431,0.019510
9626000,0.0324,0.013523,0.002678,0.000431,0.017042
9627000,0.0324,0.013523,0.002678,0.000431,0.037491
9628000,0.0324,0.013523,0.002678,0.000431,0.004466
9629000,0.0324,0.013523,0.002678,0.000431,0.004701
9630000,0.0324,0.013523,0.002678,0.000431,0.004701
9631000,0.0324,0.013523,0.002678,0.000431,0.004701
9632000,0.0324,0.013523,0.002678,0.000431,0.008697
9633000,0.0324,0.013523,0.002678,0.000431,0.008462
9634000,0.0324,0.013523,0.002678,0.000431,0.102014
9635000,0.0324,0.013523,0.002678,0.000431,0.008462
9636000,0.0324,0.013523,0.002678,0.000431,0.031027
9637000,0.0324,0.013523,0.002678,0.000431,0.004701
9638000,0.0324,0.013523,0.002678,0.000431,0.004466
9639000,0.0324,0.013523,0.002678,0.000431,0.042310
9640000,0.0324,0.013523,0.002678,0.000431,0.004701
9641000,0.0324,0.013523,0.002678,0.000431,0.004701
9642000,0.0324,0.013523,0.002678,0.000431,0.066756
9643000,0.0324,0.013523,0.002678,0.000431,0.017864
9644000,0.0324,0.013523,0.002678,0.000431,0.004701
9645000,0.0324,0.013523,0.002678,0.000431,0.019745
9646000,0.0324,0.013523,0.002678,0.000431,0.004701
9647000,0.0324,0.013523,0.002678,0.000431,0.027267
9648000,0.0324,0.013523,0.002678,0.000431,0.004701
9649000,0.0324,0.013523,0.002678,0.000431,0.004936
9650000,0.0324,0.013523,0.002678,0.000431,0.004701
9651000,0.0324,0.013523,0.002678,0.000431,0.004701
9652000,0.0324,0.013523,0.002678,0.000431,0.004701
9653000,0.0324,0.013523,0.002678,0.000431,0.009990
9654000,0.0324,0.013523,0.002678,0.000431,0.014456
9655000,0.0324,0.013523,0.002678,0.000431,0.027031
9656000,0.0324,0.013523,0.002678,0.000431,0.019980
9657000,0.0324,0.013523,0.002678,0.000431,0.004701
9658000,0.0324,0.013523,0.002678,0.000431,0.018099
9659000,0.0324,0.013523,0.002678,0.000431,0.006347
9660000,0.0324,0.013523,0.002678,0.000431,0.004701
9661000,0.0324,0.013523,0.002678,0.000431,0.004701
9662000,0.0324,0.013523,0.002678,0.000431,0.004701
9663000,0.0324,0.013523,0.002678,0.000431,0.004466
9664000,0.0324,0.013523,0.002678,0.000431,0.042898
9665000,0.0324,0.013523,0.002678,0.000431,0.041487
9666000,0.0324,0.013523,0.002678,0.000431,0.004584
9667000,0.0324,0.013523,0.002678,0.000431,0.079802
9668000,0.0324,0.013523,0.002678,0.000431,0.008345
9669000,0.0324,0.013523,0.002678,0.000431,0.023388
9670000,0.0324,0.013523,0.002678,0.000431,0.004701
9671000,0.0324,0.013523,0.002678,0.000431,0.019745
9672000,0.0324,0.013523,0.002678,0.000431,0.064876
9673000,0.0324,0.013523,0.002678,0.000431,0.008697
9674000,0.0324,0.013523,0.002678,0.000431,0.015984
9675000,0.0324,0.013523,0.002678,0.000431,0.004701
9676000,0.0324,0.013523,0.002678,0.000431,0.004701
9677000,0.0324,0.013523,0.002678,0.000431,0.021273
9678000,0.0324,0.013523,0.002678,0.000431,0.033731
9679000,0.0324,0.013523,0.002678,0.000431,0.004701
9680000,0.0324,0.013523,0.002678,0.000431,0.027267
9681000,0.0324,0.013523,0.002678,0.000431,0.018334
9682000,0.0324,0.013523,0.002678,0.000431,0.043720
9683000,0.0324,0.013523,0.002678,0.000431,0.004701
9684000,0.0324,0.013523,0.002678,0.000431,0.004701
9685000,0.0324,0.013523,0.002678,0.000431,0.004701
9686000,0.0324,0.013523,0.002678,0.000431,0.008462
9687000,0.0324,0.013523,0.002678,0.000431,0.008462
9688000,0.0324,0.013523,0.002678,0.000431,0.019980
9689000,0.0324,0.013523,0.002678,0.000431,0.004701
9690000,0.0324,0.013523,0.002678,0.000431,0.023506
9691000,0.0324,0.013523,0.002678,0.000431,0.015984
9692000,0.0324,0.013523,0.002678,0.000431,0.004701
9693000,0.0324,0.013523,0.002678,0.000431,0.004701
9694000,0.0324,0.013523,0.002678,0.000431,0.004701
9695000,0.0324,0.013523,0.002678,0.000431,0.004701
9696000,0.0324,0.013523,0.002678,0.000431,0.004701
9697000,0.0324,0.013523,0.002678,0.000431,0.057119
9698000,0.0324,0.013523,0.002678,0.000431,0.012223
9699000,0.0324,0.013523,0.002678,0.000431,0.010695
9700000,0.0324,0.013523,0.002678,0.000431,0.006229
9701000,0.0324,0.013523,0.002678,0.000431,0.004701
9702000,0.0324,0.013523,0.002678,0.000431,0.004701
9703000,0.0324,0.013523,0.002678,0.000431,0.004466
9704000,0.0324,0.013523,0.002678,0.000431,0.004701
9705000,0.0324,0.013523,0.002678,0.000431,0.004466
9706000,0.0324,0.013523,0.002678,0.000431,0.012223
9707000,0.0324,0.013523,0.002678,0.000431,0.008462
9708000,0.0324,0.013523,0.002678,0.000431,0.008345
9709000,0.0324,0.013523,0.002678,0.000431,0.004584
9710000,0.0324,0.013523,0.002678,0.000431,0.008462
9711000,0.0324,0.013523,0.002678,0.000431,0.038549
9712000,0.0324,0.013523,0.002678,0.000431,0.004701
9713000,0.0324,0.013523,0.002678,0.000431,0.004701
9714000,0.0324,0.013523,0.002678,0.000431,0.012223
9715000,0.0324,0.013523,0.002678,0.000431,0.004701
9716000,0.0324,0.013523,0.002678,0.000431,0.004701
9717000,0.0324,0.013523,0.002678,0.000431,0.049832
9718000,0.0324,0.013523,0.002678,0.000431,0.004701
9719000,0.0324,0.013523,0.002678,0.000431,0.012223
9720000,0.0324,0.013523,0.002678,0.000431,0.008462
9721000,0.0324,0.013523,0.002678,0.000431,0.008462
9722000,0.0324,0.013523,0.002678,0.000431,0.004701
9723000,0.0324,0.013523,0.002678,0.000431,0.008462
9724000,0.0324,0.013523,0.002678,0.000431,0.053828
9725000,0.0324,0.013523,0.002678,0.000431,0.012223
9726000,0.0324,0.013523,0.002678,0.000431,0.004701
9727000,0.0324,0.013523,0.002678,0.000431,0.019745
9728000,0.0324,0.013523,0.002678,0.000431,0.004701
9729000,0.0324,0.013523,0.002678,0.000431,0.004701
9730000,0.0324,0.013523,0.002678,0.000431,0.012223
9731000,0.0324,0.013523,0.002678,0.000431,0.004701
9732000,0.0324,0.013523,0.002678,0.000431,0.004701
9733000,0.0324,0.013523,0.002678,0.000431,0.040900
9734000,0.0324,0.013523,0.002678,0.000431,0.028442
9735000,0.0324,0.013523,0.002678,0.000431,0.004701
9736000,0.0324,0.013523,0.002678,0.000431,0.008462
9737000,0.0324,0.013523,0.002678,0.000431,0.008462
9738000,0.0324,0.013523,0.002678,0.000431,0.004701
9739000,0.0324,0.013523,0.002678,0.000431,0.004701
9740000,0.0324,0.013523,0.002678,0.000431,0.004936
9741000,0.0324,0.013523,0.002678,0.000431,0.004701
9742000,0.0324,0.013523,0.002678,0.000431,0.004701
9743000,0.0324,0.013523,0.002678,0.000431,0.094845
9744000,0.0324,0.013523,0.002678,0.000431,0.004584
9745000,0.0324,0.013523,0.002678,0.000431,0.019627
9746000,0.0324,0.013523,0.002678,0.000431,0.004584
9747000,0.0324,0.013523,0.002678,0.000431,0.004701
9748000,0.0324,0.013523,0.002678,0.000431,0.004701
9749000,0.0324,0.013523,0.002678,0.000431,0.015749
9750000,0.0324,0.013523,0.002678,0.000431,0.015984
9751000,0.0324,0.013523,0.002678,0.000431,0.004701
9752000,0.0324,0.013523,0.002678,0.000431,0.004701
9753000,0.0324,0.013523,0.002678,0.000431,0.057354
9754000,0.0324,0.013523,0.002678,0.000431,0.004701
9755000,0.0324,0.013523,0.002678,0.000431,0.004701
9756000,0.0324,0.013523,0.002678,0.000431,0.015984
9757000,0.0324,0.013523,0.002678,0.000431,0.012223
9758000,0.0324,0.013523,0.002678,0.000431,0.031027
9759000,0.0324,0.013523,0.002678,0.000431,0.004701
9760000,0.0324,0.013523,0.002678,0.000431,0.034788
9761000,0.0324,0.013523,0.002678,0.000431,0.004701
9762000,0.0324,0.013523,0.002678,0.000431,0.017159
9763000,0.0324,0.013523,0.002678,0.000431,0.029852
9764000,0.0324,0.013523,0.002678,0.000431,0.049714
9765000,0.0324,0.013523,0.002678,0.000431,0.027384
9766000,0.0324,0.013523,0.002678,0.000431,0.004701
9767000,0.0324,0.013523,0.002678,0.000431,0.004701
9768000,0.0324,0.013523,0.002678,0.000431,0.004701
9769000,0.0324,0.013523,0.002678,0.000431,0.019745
9770000,0.0324,0.013523,0.002678,0.000431,0.004701
9771000,0.0324,0.013523,0.002678,0.000431,0.042075
9772000,0.0324,0.013523,0.002678,0.000431,0.004701
9773000,0.0324,0.013523,0.002678,0.000431,0.012223
9774000,0.0324,0.013523,0.002678,0.000431,0.004701
9775000,0.0324,0.013523,0.002678,0.000431,0.008462
9776000,0.0324,0.013523,0.002678,0.000431,0.008462
9777000,0.0324,0.013523,0.002678,0.000431,0.004701
9778000,0.0324,0.013523,0.002678,0.000431,0.004701
9779000,0.0324,0.013523,0.002678,0.000431,0.019745
9780000,0.0324,0.013523,0.002678,0.000431,0.004701
9781000,0.0324,0.013523,0.002678,0.000431,0.004701
9782000,0.0324,0.013523,0.002678,0.000431,0.019745
9783000,0.0324,0.013523,0.002678,0.000431,0.004584
9784000,0.0324,0.013523,0.002678,0.000431,0.012105
9785000,0.0324,0.013523,0.002678,0.000431,0.004584
9786000,0.0324,0.013523,0.002678,0.000431,0.004584
9787000,0.0324,0.013523,0.002678,0.000431,0.004701
9788000,0.0324,0.013523,0.002678,0.000431,0.004701
9789000,0.0324,0.013523,0.002678,0.000431,0.004466
9790000,0.0324,0.013523,0.002678,0.000431,0.004701
9791000,0.0324,0.013523,0.002678,0.000431,0.004701
9792000,0.0324,0.013523,0.002678,0.000431,0.027267
9793000,0.0324,0.013523,0.002678,0.000431,0.004701
9794000,0.0324,0.013523,0.002678,0.000431,0.004701
9795000,0.0324,0.013523,0.002678,0.000431,0.057354
9796000,0.0324,0.013523,0.002678,0.000431,0.004701
9797000,0.0324,0.013523,0.002678,0.000431,0.004701
9798000,0.0324,0.013523,0.002678,0.000431,0.004701
9799000,0.0324,0.013523,0.002678,0.000431,0.004701
9800000,0.0324,0.013523,0.002678,0.000431,0.004701
9801000,0.0324,0.013523,0.002678,0.000431,0.019745
9802000,0.0324,0.013523,0.002678,0.000431,0.049832
9803000,0.0324,0.013523,0.002678,0.000431,0.012223
9804000,0.0324,0.013523,0.002678,0.000431,0.004701
9805000,0.0324,0.013523,0.002678,0.000431,0.061115
9806000,0.0324,0.013523,0.002678,0.000431,0.015984
9807000,0.0324,0.013523,0.002678,0.000431,0.004701
9808000,0.0324,0.013523,0.002678,0.000431,0.027267
9809000,0.0324,0.013523,0.002678,0.000431,0.004701
9810000,0.0324,0.013523,0.002678,0.000431,0.004701
9811000,0.0324,0.013523,0.002678,0.000431,0.004466
9812000,0.0324,0.013523,0.002678,0.000431,0.004701
9813000,0.0324,0.013523,0.002678,0.000431,0.004701
9814000,0.0324,0.013523,0.002678,0.000431,0.004701
9815000,0.0324,0.013523,0.002678,0.000431,0.019745
9816000,0.0324,0.013523,0.002678,0.000431,0.019745
9817000,0.0324,0.013523,0.002678,0.000431,0.004701
9818000,0.0324,0.013523,0.002678,0.000431,0.008815
9819000,0.0324,0.013523,0.002678,0.000431,0.008109
9820000,0.0324,0.013523,0.002678,0.000431,0.012223
9821000,0.0324,0.013523,0.002678,0.000431,0.012223
9822000,0.0324,0.013523,0.002678,0.000431,0.005289
9823000,0.0324,0.013523,0.002678,0.000431,0.041723
9824000,0.0324,0.013523,0.002678,0.000431,0.004466
9825000,0.0324,0.013523,0.002678,0.000431,0.027149
9826000,0.0324,0.013523,0.002678,0.000431,0.004584
9827000,0.0324,0.013523,0.002678,0.000431,0.043133
9828000,0.0324,0.013523,0.002678,0.000431,0.011400
9829000,0.0324,0.013523,0.002678,0.000431,0.024446
9830000,0.0324,0.013523,0.002678,0.000431,0.052418
9831000,0.0324,0.013523,0.002678,0.000431,0.004701
9832000,0.0324,0.013523,0.002678,0.000431,0.004701
9833000,0.0324,0.013523,0.002678,0.000431,0.090262
9834000,0.0324,0.013523,0.002678,0.000431,0.024446
9835000,0.0324,0.013523,0.002678,0.000431,0.004701
9836000,0.0324,0.013523,0.002678,0.000431,0.012223
9837000,0.0324,0.013523,0.002678,0.000431,0.004701
9838000,0.0324,0.013523,0.002678,0.000431,0.034788
9839000,0.0324,0.013523,0.002678,0.000431,0.004701
9840000,0.0324,0.013523,0.002678,0.000431,0.049832
9841000,0.0324,0.013523,0.002678,0.000431,0.034788
9842000,0.0324,0.013523,0.002678,0.000431,0.004701
9843000,0.0324,0.013523,0.002678,0.000431,0.004701
9844000,0.0324,0.013523,0.002678,0.000431,0.016689
9845000,0.0324,0.013523,0.002678,0.000431,0.052888
9846000,0.0324,0.013523,0.002678,0.000431,0.049597
9847000,0.0324,0.013523,0.002678,0.000431,0.027267
9848000,0.0324,0.013523,0.002678,0.000431,0.034788
9849000,0.0324,0.013523,0.002678,0.000431,0.012223
9850000,0.0324,0.013523,0.002678,0.000431,0.004701
9851000,0.0324,0.013523,0.002678,0.000431,0.012223
9852000,0.0324,0.013523,0.002678,0.000431,0.004701
9853000,0.0324,0.013523,0.002678,0.000431,0.034788
9854000,0.0324,0.013523,0.002678,0.000431,0.042310
9855000,0.0324,0.013523,0.002678,0.000431,0.024681
9856000,0.0324,0.013523,0.002678,0.000431,0.014809
9857000,0.0324,0.013523,0.002678,0.000431,0.004701
9858000,0.0324,0.013523,0.002678,0.000431,0.004701
9859000,0.0324,0.013523,0.002678,0.000431,0.008462
9860000,0.0324,0.013523,0.002678,0.000431,0.021038
9861000,0.0324,0.013523,0.002678,0.000431,0.022213
9862000,0.0324,0.013523,0.002678,0.000431,0.012223
9863000,0.0324,0.013523,0.002678,0.000431,0.004701
9864000,0.0324,0.013523,0.002678,0.000431,0.019510
9865000,0.0324,0.013523,0.002678,0.000431,0.004584
9866000,0.0324,0.013523,0.002678,0.000431,0.004584
9867000,0.0324,0.013523,0.002678,0.000431,0.012223
9868000,0.0324,0.013523,0.002678,0.000431,0.023506
9869000,0.0324,0.013523,0.002678,0.000431,0.015866
9870000,0.0324,0.013523,0.002678,0.000431,0.012105
9871000,0.0324,0.013523,0.002678,0.000431,0.019745
9872000,0.0324,0.013523,0.002678,0.000431,0.012223
9873000,0.0324,0.013523,0.002678,0.000431,0.004701
9874000,0.0324,0.013523,0.002678,0.000431,0.004701
9875000,0.0324,0.013523,0.002678,0.000431,0.027267
9876000,0.0324,0.013523,0.002678,0.000431,0.004701
9877000,0.0324,0.013523,0.002678,0.000431,0.019745
9878000,0.0324,0.013523,0.002678,0.000431,0.004701
9879000,0.0324,0.013523,0.002678,0.000431,0.012223
9880000,0.0324,0.013523,0.002678,0.000431,0.027267
9881000,0.0324,0.013523,0.002678,0.000431,0.075218
9882000,0.0324,0.013523,0.002678,0.000431,0.009402
9883000,0.0324,0.013523,0.002678,0.000431,0.004701
9884000,0.0324,0.013523,0.002678,0.000431,0.004701
9885000,0.0324,0.013523,0.002678,0.000431,0.004701
9886000,0.0324,0.013523,0.002678,0.000431,0.004466
9887000,0.0324,0.013523,0.002678,0.000431,0.004701
9888000,0.0324,0.013523,0.002678,0.000431,0.094728
9889000,0.0324,0.013523,0.002678,0.000431,0.004701
9890000,0.0324,0.013523,0.002678,0.000431,0.019745
9891000,0.0324,0.013523,0.002678,0.000431,0.004701
9892000,0.0324,0.013523,0.002678,0.000431,0.004701
9893000,0.0324,0.013523,0.002678,0.000431,0.004701
9894000,0.0324,0.013523,0.002678,0.000431,0.004701
9895000,0.0324,0.013523,0.002678,0.000431,0.004701
9896000,0.0324,0.013523,0.002678,0.000431,0.005994
9897000,0.0324,0.013523,0.002678,0.000431,0.018452
9898000,0.0324,0.013523,0.002678,0.000431,0.012223
9899000,0.0324,0.013523,0.002678,0.000431,0.027267
9900000,0.0324,0.013523,0.002678,0.000431,0.004701
9901000,0.0324,0.013523,0.002678,0.000431,0.027267
9902000,0.0324,0.013523,0.002678,0.000431,0.004701
9903000,0.0324,0.013523,0.002678,0.000431,0.027267
9904000,0.0324,0.013523,0.002678,0.000431,0.004701
9905000,0.0324,0.013523,0.002678,0.000431,0.027267
9906000,0.0324,0.013523,0.002678,0.000431,0.004466
9907000,0.0324,0.013523,0.002678,0.000431,0.011635
9908000,0.0324,0.013523,0.002678,0.000431,0.005289
9909000,0.0324,0.013523,0.002678,0.000431,0.004584
9910000,0.0324,0.013523,0.002678,0.000431,0.004584
9911000,0.0324,0.013523,0.002678,0.000431,0.068636
9912000,0.0324,0.013523,0.002678,0.000431,0.031027
9913000,0.0324,0.013523,0.002678,0.000431,0.004466
9914000,0.0324,0.013523,0.002678,0.000431,0.004466
9915000,0.0324,0.013523,0.002678,0.000431,0.004701
9916000,0.0324,0.013523,0.002678,0.000431,0.019745
9917000,0.0324,0.013523,0.002678,0.000431,0.004701
9918000,0.0324,0.013523,0.002678,0.000431,0.004701
9919000,0.0324,0.013523,0.002678,0.000431,0.004701
9920000,0.0324,0.013523,0.002678,0.000431,0.057589
9921000,0.0324,0.013523,0.002678,0.000431,0.027031
9922000,0.0324,0.013523,0.002678,0.000431,0.008462
9923000,0.0324,0.013523,0.002678,0.000431,0.008462
9924000,0.0324,0.013523,0.002678,0.000431,0.058999
9925000,0.0324,0.013523,0.002678,0.000431,0.161014
9926000,0.0324,0.013523,0.002678,0.000431,0.004701
9927000,0.0324,0.013523,0.002678,0.000431,0.004936
9928000,0.0324,0.013523,0.002678,0.000431,0.004701
9929000,0.0324,0.013523,0.002678,0.000431,0.012223
9930000,0.0324,0.013523,0.002678,0.000431,0.004701
9931000,0.0324,0.013523,0.002678,0.000431,0.020097
9932000,0.0324,0.013523,0.002678,0.000431,0.049479
9933000,0.0324,0.013523,0.002678,0.000431,0.012223
9934000,0.0324,0.013523,0.002678,0.000431,0.004701
9935000,0.0324,0.013523,0.002678,0.000431,0.042075
9936000,0.0324,0.013523,0.002678,0.000431,0.004701
9937000,0.0324,0.013523,0.002678,0.000431,0.004701
9938000,0.0324,0.013523,0.002678,0.000431,0.027267
9939000,0.0324,0.013523,0.002678,0.000431,0.008462
9940000,0.0324,0.013523,0.002678,0.000431,0.023388
9941000,0.0324,0.013523,0.002678,0.000431,0.007052
9942000,0.0324,0.013523,0.002678,0.000431,0.039842
9943000,0.0324,0.013523,0.002678,0.000431,0.004701
9944000,0.0324,0.013523,0.002678,0.000431,0.042310
9945000,0.0324,0.013523,0.002678,0.000431,0.019745
9946000,0.0324,0.013523,0.002678,0.000431,0.004466
9947000,0.0324,0.013523,0.002678,0.000431,0.004701
9948000,0.0324,0.013523,0.002678,0.000431,0.090967
9949000,0.0324,0.013523,0.002678,0.000431,0.008697
9950000,0.0324,0.013523,0.002678,0.000431,0.030322
9951000,0.0324,0.013523,0.002678,0.000431,0.009167
9952000,0.0324,0.013523,0.002678,0.000431,0.004701
9953000,0.0324,0.013523,0.002678,0.000431,0.004466
9954000,0.0324,0.013523,0.002678,0.000431,0.012223
9955000,0.0324,0.013523,0.002678,0.000431,0.012223
9956000,0.0324,0.013523,0.002678,0.000431,0.004701
9957000,0.0324,0.013523,0.002678,0.000431,0.004701
9958000,0.0324,0.013523,0.002678,0.000431,0.004701
9959000,0.0324,0.013523,0.002678,0.000431,0.042310
9960000,0.0324,0.013523,0.002678,0.000431,0.004701
9961000,0.0324,0.013523,0.002678,0.000431,0.042310
9962000,0.0324,0.013523,0.002678,0.000431,0.004701
9963000,0.0324,0.013523,0.002678,0.000431,0.019745
9964000,0.0324,0.013523,0.002678,0.000431,0.019745
9965000,0.0324,0.013523,0.002678,0.000431,0.008462
9966000,0.0324,0.013523,0.002678,0.000431,0.008462
9967000,0.0324,0.013523,0.002678,0.000431,0.004701
9968000,0.0324,0.013523,0.002678,0.000431,0.004701
9969000,0.0324,0.013523,0.002678,0.000431,0.004701
9970000,0.0324,0.013523,0.002678,0.000431,0.004701
9971000,0.0324,0.013523,0.002678,0.000431,0.004701
9972000,0.0324,0.013523,0.002678,0.000431,0.004701
9973000,0.0324,0.013523,0.002678,0.000431,0.004701
9974000,0.0324,0.013523,0.002678,0.000431,0.019980
9975000,0.0324,0.013523,0.002678,0.000431,0.004466
9976000,0.0324,0.013523,0.002678,0.000431,0.027267
9977000,0.0324,0.013523,0.002678,0.000431,0.019745
9978000,0.0324,0.013523,0.002678,0.000431,0.031027
9979000,0.0324,0.013523,0.002678,0.000431,0.015984
9980000,0.0324,0.013523,0.002678,0.000431,0.004584
9981000,0.0324,0.013523,0.002678,0.000431,0.004584
9982000,0.0324,0.013523,0.002678,0.000431,0.004701
9983000,0.0324,0.013523,0.002678,0.000431,0.012223
9984000,0.0324,0.013523,0.002678,0.000431,0.012223
9985000,0.0324,0.013523,0.002678,0.000431,0.012223
9986000,0.0324,0.013523,0.002678,0.000431,0.004466
9987000,0.0324,0.013523,0.002678,0.000431,0.027267
9988000,0.0324,0.013523,0.002678,0.000431,0.004701
9989000,0.0324,0.013523,0.002678,0.000431,0.004701
9990000,0.0324,0.013523,0.002678,0.000431,0.012223
9991000,0.0324,0.013523,0.002678,0.000431,0.019745
9992000,0.0324,0.013523,0.002678,0.000431,0.004701
9993000,0.0324,0.013523,0.002678,0.000431,0.076276
9994000,0.0324,0.013523,0.002678,0.000431,0.008109
9995000,0.0324,0.013523,0.002678,0.000431,0.035023
9996000,0.0324,0.013523,0.002678,0.000431,0.044896
9997000,0.0324,0.013523,0.002678,0.000431,0.024446
9998000,0.0324,0.013523,0.002678,0.000431,0.012223
9999000,0.0324,0.013523,0.002678,0.000431,0.012223
