Cycle,Area(mm^2),PeakDynamic(W),SubthresholdLeakage(W),GateLeakage(W),RunTimeDynamic(W)
9000000,0.0324,0.013523,0.002678,0.000431,0.000235
9001000,0.0324,0.013523,0.002678,0.000431,0.000353
9002000,0.0324,0.013523,0.002678,0.000431,0.000470
9003000,0.0324,0.013523,0.002678,0.000431,0.000235
9004000,0.0324,0.013523,0.002678,0.000431,0.000235
9005000,0.0324,0.013523,0.002678,0.000431,0.000470
9006000,0.0324,0.013523,0.002678,0.000431,0.000353
9007000,0.0324,0.013523,0.002678,0.000431,0.000235
9008000,0.0324,0.013523,0.002678,0.000431,0.000353
9009000,0.0324,0.013523,0.002678,0.000431,0.000470
9010000,0.0324,0.013523,0.002678,0.000431,0.000235
9011000,0.0324,0.013523,0.002678,0.000431,0.000235
9012000,0.0324,0.013523,0.002678,0.000431,0.000470
9013000,0.0324,0.013523,0.002678,0.000431,0.000353
9014000,0.0324,0.013523,0.002678,0.000431,0.000235
9015000,0.0324,0.013523,0.002678,0.000431,0.000353
9016000,0.0324,0.013523,0.002678,0.000431,0.000470
9017000,0.0324,0.013523,0.002678,0.000431,0.000235
9018000,0.0324,0.013523,0.002678,0.000431,0.000235
9019000,0.0324,0.013523,0.002678,0.000431,0.000470
9020000,0.0324,0.013523,0.002678,0.000431,0.000353
9021000,0.0324,0.013523,0.002678,0.000431,0.000235
9022000,0.0324,0.013523,0.002678,0.000431,0.000353
9023000,0.0324,0.013523,0.002678,0.000431,0.000470
9024000,0.0324,0.013523,0.002678,0.000431,0.000118
9025000,0.0324,0.013523,0.002678,0.000431,0.000353
9026000,0.0324,0.013523,0.002678,0.000431,0.000470
9027000,0.0324,0.013523,0.002678,0.000431,0.000353
9028000,0.0324,0.013523,0.002678,0.000431,0.000235
9029000,0.0324,0.013523,0.002678,0.000431,0.000353
9030000,0.0324,0.013523,0.002678,0.000431,0.000470
9031000,0.0324,0.013523,0.002678,0.000431,0.000118
9032000,0.0324,0.013523,0.002678,0.000431,0.000353
9033000,0.0324,0.013523,0.002678,0.000431,0.000470
9034000,0.0324,0.013523,0.002678,0.000431,0.000353
9035000,0.0324,0.013523,0.002678,0.000431,0.000235
9036000,0.0324,0.013523,0.002678,0.000431,0.000353
9037000,0.0324,0.013523,0.002678,0.000431,0.000470
9038000,0.0324,0.013523,0.002678,0.000431,0.000118
9039000,0.0324,0.013523,0.002678,0.000431,0.000353
9040000,0.0324,0.013523,0.002678,0.000431,0.000470
9041000,0.0324,0.013523,0.002678,0.000431,0.000353
9042000,0.0324,0.013523,0.002678,0.000431,0.000235
9043000,0.0324,0.013523,0.002678,0.000431,0.000353
9044000,0.0324,0.013523,0.002678,0.000431,0.000470
9045000,0.0324,0.013523,0.002678,0.000431,0.000118
9046000,0.0324,0.013523,0.002678,0.000431,0.000353
9047000,0.0324,0.013523,0.002678,0.000431,0.000470
9048000,0.0324,0.013523,0.002678,0.000431,0.000353
9049000,0.0324,0.013523,0.002678,0.000431,0.000235
9050000,0.0324,0.013523,0.002678,0.000431,0.000353
9051000,0.0324,0.013523,0.002678,0.000431,0.000353
9052000,0.0324,0.013523,0.002678,0.000431,0.000235
9053000,0.0324,0.013523,0.002678,0.000431,0.000353
9054000,0.0324,0.013523,0.002678,0.000431,0.000470
9055000,0.0324,0.013523,0.002678,0.000431,0.000353
9056000,0.0324,0.013523,0.002678,0.000431,0.000235
9057000,0.0324,0.013523,0.002678,0.000431,0.000353
9058000,0.0324,0.013523,0.002678,0.000431,0.000353
9059000,0.0324,0.013523,0.002678,0.000431,0.000235
9060000,0.0324,0.013523,0.002678,0.000431,0.000353
9061000,0.0324,0.013523,0.002678,0.000431,0.000470
9062000,0.0324,0.013523,0.002678,0.000431,0.000353
9063000,0.0324,0.013523,0.002678,0.000431,0.000235
9064000,0.0324,0.013523,0.002678,0.000431,0.000353
9065000,0.0324,0.013523,0.002678,0.000431,0.000353
9066000,0.0324,0.013523,0.002678,0.000431,0.000235
9067000,0.0324,0.013523,0.002678,0.000431,0.000353
9068000,0.0324,0.013523,0.002678,0.000431,0.000470
9069000,0.0324,0.013523,0.002678,0.000431,0.000353
9070000,0.0324,0.013523,0.002678,0.000431,0.000235
9071000,0.0324,0.013523,0.002678,0.000431,0.000353
9072000,0.0324,0.013523,0.002678,0.000431,0.000353
9073000,0.0324,0.013523,0.002678,0.000431,0.000235
9074000,0.0324,0.013523,0.002678,0.000431,0.000353
9075000,0.0324,0.013523,0.002678,0.000431,0.000470
9076000,0.0324,0.013523,0.002678,0.000431,0.000353
9077000,0.0324,0.013523,0.002678,0.000431,0.000235
9078000,0.0324,0.013523,0.002678,0.000431,0.000353
9079000,0.0324,0.013523,0.002678,0.000431,0.000353
9080000,0.0324,0.013523,0.002678,0.000431,0.000235
9081000,0.0324,0.013523,0.002678,0.000431,0.000353
9082000,0.0324,0.013523,0.002678,0.000431,0.000470
9083000,0.0324,0.013523,0.002678,0.000431,0.000353
9084000,0.0324,0.013523,0.002678,0.000431,0.000235
9085000,0.0324,0.013523,0.002678,0.000431,0.000353
9086000,0.0324,0.013523,0.002678,0.000431,0.000353
9087000,0.0324,0.013523,0.002678,0.000431,0.000235
9088000,0.0324,0.013523,0.002678,0.000431,0.000353
9089000,0.0324,0.013523,0.002678,0.000431,0.000470
9090000,0.0324,0.013523,0.002678,0.000431,0.000353
9091000,0.0324,0.013523,0.002678,0.000431,0.000235
9092000,0.0324,0.013523,0.002678,0.000431,0.000353
9093000,0.0324,0.013523,0.002678,0.000431,0.000353
9094000,0.0324,0.013523,0.002678,0.000431,0.000235
9095000,0.0324,0.013523,0.002678,0.000431,0.000353
9096000,0.0324,0.013523,0.002678,0.000431,0.000470
9097000,0.0324,0.013523,0.002678,0.000431,0.000353
9098000,0.0324,0.013523,0.002678,0.000431,0.000118
9099000,0.0324,0.013523,0.002678,0.000431,0.000470
9100000,0.0324,0.013523,0.002678,0.000431,0.000353
9101000,0.0324,0.013523,0.002678,0.000431,0.000235
9102000,0.0324,0.013523,0.002678,0.000431,0.000353
9103000,0.0324,0.013523,0.002678,0.000431,0.000470
9104000,0.0324,0.013523,0.002678,0.000431,0.000353
9105000,0.0324,0.013523,0.002678,0.000431,0.000118
9106000,0.0324,0.013523,0.002678,0.000431,0.000470
9107000,0.0324,0.013523,0.002678,0.000431,0.000353
9108000,0.0324,0.013523,0.002678,0.000431,0.000235
9109000,0.0324,0.013523,0.002678,0.000431,0.000353
9110000,0.0324,0.013523,0.002678,0.000431,0.000470
9111000,0.0324,0.013523,0.002678,0.000431,0.000353
9112000,0.0324,0.013523,0.002678,0.000431,0.000118
9113000,0.0324,0.013523,0.002678,0.000431,0.000470
9114000,0.0324,0.013523,0.002678,0.000431,0.000353
9115000,0.0324,0.013523,0.002678,0.000431,0.000235
9116000,0.0324,0.013523,0.002678,0.000431,0.000353
9117000,0.0324,0.013523,0.002678,0.000431,0.000470
9118000,0.0324,0.013523,0.002678,0.000431,0.000353
9119000,0.0324,0.013523,0.002678,0.000431,0.000118
9120000,0.0324,0.013523,0.002678,0.000431,0.000470
9121000,0.0324,0.013523,0.002678,0.000431,0.000353
9122000,0.0324,0.013523,0.002678,0.000431,0.000235
9123000,0.0324,0.013523,0.002678,0.000431,0.000353
9124000,0.0324,0.013523,0.002678,0.000431,0.000470
9125000,0.0324,0.013523,0.002678,0.000431,0.000235
9126000,0.0324,0.013523,0.002678,0.000431,0.000235
9127000,0.0324,0.013523,0.002678,0.000431,0.000470
9128000,0.0324,0.013523,0.002678,0.000431,0.000353
9129000,0.0324,0.013523,0.002678,0.000431,0.000235
9130000,0.0324,0.013523,0.002678,0.000431,0.000353
9131000,0.0324,0.013523,0.002678,0.000431,0.000470
9132000,0.0324,0.013523,0.002678,0.000431,0.000235
9133000,0.0324,0.013523,0.002678,0.000431,0.000235
9134000,0.0324,0.013523,0.002678,0.000431,0.000470
9135000,0.0324,0.013523,0.002678,0.000431,0.000353
9136000,0.0324,0.013523,0.002678,0.000431,0.000235
9137000,0.0324,0.013523,0.002678,0.000431,0.000353
9138000,0.0324,0.013523,0.002678,0.000431,0.000470
9139000,0.0324,0.013523,0.002678,0.000431,0.000235
9140000,0.0324,0.013523,0.002678,0.000431,0.000235
9141000,0.0324,0.013523,0.002678,0.000431,0.000470
9142000,0.0324,0.013523,0.002678,0.000431,0.000353
9143000,0.0324,0.013523,0.002678,0.000431,0.000235
9144000,0.0324,0.013523,0.002678,0.000431,0.000353
9145000,0.0324,0.013523,0.002678,0.000431,0.000470
9146000,0.0324,0.013523,0.002678,0.000431,0.000235
9147000,0.0324,0.013523,0.002678,0.000431,0.000235
9148000,0.0324,0.013523,0.002678,0.000431,0.000470
9149000,0.0324,0.013523,0.002678,0.000431,0.000353
9150000,0.0324,0.013523,0.002678,0.000431,0.000235
9151000,0.0324,0.013523,0.002678,0.000431,0.000353
9152000,0.0324,0.013523,0.002678,0.000431,0.000470
9153000,0.0324,0.013523,0.002678,0.000431,0.000235
9154000,0.0324,0.013523,0.002678,0.000431,0.000235
9155000,0.0324,0.013523,0.002678,0.000431,0.000470
9156000,0.0324,0.013523,0.002678,0.000431,0.000353
9157000,0.0324,0.013523,0.002678,0.000431,0.000235
9158000,0.0324,0.013523,0.002678,0.000431,0.000353
9159000,0.0324,0.013523,0.002678,0.000431,0.000470
9160000,0.0324,0.013523,0.002678,0.000431,0.000235
9161000,0.0324,0.013523,0.002678,0.000431,0.000235
9162000,0.0324,0.013523,0.002678,0.000431,0.000470
9163000,0.0324,0.013523,0.002678,0.000431,0.000353
9164000,0.0324,0.013523,0.002678,0.000431,0.000235
9165000,0.0324,0.013523,0.002678,0.000431,0.000353
9166000,0.0324,0.013523,0.002678,0.000431,0.000470
9167000,0.0324,0.013523,0.002678,0.000431,0.000118
9168000,0.0324,0.013523,0.002678,0.000431,0.000353
9169000,0.0324,0.013523,0.002678,0.000431,0.000470
9170000,0.0324,0.013523,0.002678,0.000431,0.000353
9171000,0.0324,0.013523,0.002678,0.000431,0.000235
9172000,0.0324,0.013523,0.002678,0.000431,0.000353
9173000,0.0324,0.013523,0.002678,0.000431,0.000470
9174000,0.0324,0.013523,0.002678,0.000431,0.000118
9175000,0.0324,0.013523,0.002678,0.000431,0.000353
9176000,0.0324,0.013523,0.002678,0.000431,0.000470
9177000,0.0324,0.013523,0.002678,0.000431,0.000353
9178000,0.0324,0.013523,0.002678,0.000431,0.000235
9179000,0.0324,0.013523,0.002678,0.000431,0.000353
9180000,0.0324,0.013523,0.002678,0.000431,0.000470
9181000,0.0324,0.013523,0.002678,0.000431,0.000118
9182000,0.0324,0.013523,0.002678,0.000431,0.000353
9183000,0.0324,0.013523,0.002678,0.000431,0.000470
9184000,0.0324,0.013523,0.002678,0.000431,0.000353
9185000,0.0324,0.013523,0.002678,0.000431,0.000235
9186000,0.0324,0.013523,0.002678,0.000431,0.000353
9187000,0.0324,0.013523,0.002678,0.000431,0.000353
9188000,0.0324,0.013523,0.002678,0.000431,0.000235
9189000,0.0324,0.013523,0.002678,0.000431,0.000353
9190000,0.0324,0.013523,0.002678,0.000431,0.000470
9191000,0.0324,0.013523,0.002678,0.000431,0.000353
9192000,0.0324,0.013523,0.002678,0.000431,0.000235
9193000,0.0324,0.013523,0.002678,0.000431,0.000353
9194000,0.0324,0.013523,0.002678,0.000431,0.000353
9195000,0.0324,0.013523,0.002678,0.000431,0.000235
9196000,0.0324,0.013523,0.002678,0.000431,0.000353
9197000,0.0324,0.013523,0.002678,0.000431,0.000470
9198000,0.0324,0.013523,0.002678,0.000431,0.000353
9199000,0.0324,0.013523,0.002678,0.000431,0.000235
9200000,0.0324,0.013523,0.002678,0.000431,0.000353
9201000,0.0324,0.013523,0.002678,0.000431,0.000353
9202000,0.0324,0.013523,0.002678,0.000431,0.000235
9203000,0.0324,0.013523,0.002678,0.000431,0.000353
9204000,0.0324,0.013523,0.002678,0.000431,0.000470
9205000,0.0324,0.013523,0.002678,0.000431,0.000353
9206000,0.0324,0.013523,0.002678,0.000431,0.000235
9207000,0.0324,0.013523,0.002678,0.000431,0.000353
9208000,0.0324,0.013523,0.002678,0.000431,0.000353
9209000,0.0324,0.013523,0.002678,0.000431,0.000235
9210000,0.0324,0.013523,0.002678,0.000431,0.000353
9211000,0.0324,0.013523,0.002678,0.000431,0.000470
9212000,0.0324,0.013523,0.002678,0.000431,0.000353
9213000,0.0324,0.013523,0.002678,0.000431,0.000235
9214000,0.0324,0.013523,0.002678,0.000431,0.000353
9215000,0.0324,0.013523,0.002678,0.000431,0.000353
9216000,0.0324,0.013523,0.002678,0.000431,0.000235
9217000,0.0324,0.013523,0.002678,0.000431,0.000353
9218000,0.0324,0.013523,0.002678,0.000431,0.000470
9219000,0.0324,0.013523,0.002678,0.000431,0.000353
9220000,0.0324,0.013523,0.002678,0.000431,0.000235
9221000,0.0324,0.013523,0.002678,0.000431,0.000353
9222000,0.0324,0.013523,0.002678,0.000431,0.000353
9223000,0.0324,0.013523,0.002678,0.000431,0.000235
9224000,0.0324,0.013523,0.002678,0.000431,0.000353
9225000,0.0324,0.013523,0.002678,0.000431,0.000470
9226000,0.0324,0.013523,0.002678,0.000431,0.000353
9227000,0.0324,0.013523,0.002678,0.000431,0.000235
9228000,0.0324,0.013523,0.002678,0.000431,0.000353
9229000,0.0324,0.013523,0.002678,0.000431,0.000353
9230000,0.0324,0.013523,0.002678,0.000431,0.000235
9231000,0.0324,0.013523,0.002678,0.000431,0.000353
9232000,0.0324,0.013523,0.002678,0.000431,0.000470
9233000,0.0324,0.013523,0.002678,0.000431,0.000353
9234000,0.0324,0.013523,0.002678,0.000431,0.000235
9235000,0.0324,0.013523,0.002678,0.000431,0.000353
9236000,0.0324,0.013523,0.002678,0.000431,0.000353
9237000,0.0324,0.013523,0.002678,0.000431,0.000235
9238000,0.0324,0.013523,0.002678,0.000431,0.000353
9239000,0.0324,0.013523,0.002678,0.000431,0.000470
9240000,0.0324,0.013523,0.002678,0.000431,0.000353
9241000,0.0324,0.013523,0.002678,0.000431,0.000118
9242000,0.0324,0.013523,0.002678,0.000431,0.000470
9243000,0.0324,0.013523,0.002678,0.000431,0.000353
9244000,0.0324,0.013523,0.002678,0.000431,0.000235
9245000,0.0324,0.013523,0.002678,0.000431,0.000353
9246000,0.0324,0.013523,0.002678,0.000431,0.000470
9247000,0.0324,0.013523,0.002678,0.000431,0.000353
9248000,0.0324,0.013523,0.002678,0.000431,0.000118
9249000,0.0324,0.013523,0.002678,0.000431,0.000470
9250000,0.0324,0.013523,0.002678,0.000431,0.000353
9251000,0.0324,0.013523,0.002678,0.000431,0.000235
9252000,0.0324,0.013523,0.002678,0.000431,0.000353
9253000,0.0324,0.013523,0.002678,0.000431,0.000470
9254000,0.0324,0.013523,0.002678,0.000431,0.000353
9255000,0.0324,0.013523,0.002678,0.000431,0.000118
9256000,0.0324,0.013523,0.002678,0.000431,0.000470
9257000,0.0324,0.013523,0.002678,0.000431,0.000353
9258000,0.0324,0.013523,0.002678,0.000431,0.000235
9259000,0.0324,0.013523,0.002678,0.000431,0.000353
9260000,0.0324,0.013523,0.002678,0.000431,0.000470
9261000,0.0324,0.013523,0.002678,0.000431,0.000235
9262000,0.0324,0.013523,0.002678,0.000431,0.000235
9263000,0.0324,0.013523,0.002678,0.000431,0.000470
9264000,0.0324,0.013523,0.002678,0.000431,0.000353
9265000,0.0324,0.013523,0.002678,0.000431,0.000235
9266000,0.0324,0.013523,0.002678,0.000431,0.000353
9267000,0.0324,0.013523,0.002678,0.000431,0.000470
9268000,0.0324,0.013523,0.002678,0.000431,0.000235
9269000,0.0324,0.013523,0.002678,0.000431,0.000235
9270000,0.0324,0.013523,0.002678,0.000431,0.000470
9271000,0.0324,0.013523,0.002678,0.000431,0.000353
9272000,0.0324,0.013523,0.002678,0.000431,0.000235
9273000,0.0324,0.013523,0.002678,0.000431,0.000353
9274000,0.0324,0.013523,0.002678,0.000431,0.000470
9275000,0.0324,0.013523,0.002678,0.000431,0.000235
9276000,0.0324,0.013523,0.002678,0.000431,0.000235
9277000,0.0324,0.013523,0.002678,0.000431,0.000470
9278000,0.0324,0.013523,0.002678,0.000431,0.000353
9279000,0.0324,0.013523,0.002678,0.000431,0.000235
9280000,0.0324,0.013523,0.002678,0.000431,0.000353
9281000,0.0324,0.013523,0.002678,0.000431,0.000470
9282000,0.0324,0.013523,0.002678,0.000431,0.000235
9283000,0.0324,0.013523,0.002678,0.000431,0.000235
9284000,0.0324,0.013523,0.002678,0.000431,0.000470
9285000,0.0324,0.013523,0.002678,0.000431,0.000353
9286000,0.0324,0.013523,0.002678,0.000431,0.000235
9287000,0.0324,0.013523,0.002678,0.000431,0.000353
9288000,0.0324,0.013523,0.002678,0.000431,0.000470
9289000,0.0324,0.013523,0.002678,0.000431,0.000235
9290000,0.0324,0.013523,0.002678,0.000431,0.000235
9291000,0.0324,0.013523,0.002678,0.000431,0.000470
9292000,0.0324,0.013523,0.002678,0.000431,0.000353
9293000,0.0324,0.013523,0.002678,0.000431,0.000235
9294000,0.0324,0.013523,0.002678,0.000431,0.000353
9295000,0.0324,0.013523,0.002678,0.000431,0.000470
9296000,0.0324,0.013523,0.002678,0.000431,0.000235
9297000,0.0324,0.013523,0.002678,0.000431,0.000235
9298000,0.0324,0.013523,0.002678,0.000431,0.000470
9299000,0.0324,0.013523,0.002678,0.000431,0.000353
9300000,0.0324,0.013523,0.002678,0.000431,0.000235
9301000,0.0324,0.013523,0.002678,0.000431,0.000353
9302000,0.0324,0.013523,0.002678,0.000431,0.000470
9303000,0.0324,0.013523,0.002678,0.000431,0.000118
9304000,0.0324,0.013523,0.002678,0.000431,0.000353
9305000,0.0324,0.013523,0.002678,0.000431,0.000470
9306000,0.0324,0.013523,0.002678,0.000431,0.000353
9307000,0.0324,0.013523,0.002678,0.000431,0.000235
9308000,0.0324,0.013523,0.002678,0.000431,0.000353
9309000,0.0324,0.013523,0.002678,0.000431,0.000470
9310000,0.0324,0.013523,0.002678,0.000431,0.000118
9311000,0.0324,0.013523,0.002678,0.000431,0.000353
9312000,0.0324,0.013523,0.002678,0.000431,0.000470
9313000,0.0324,0.013523,0.002678,0.000431,0.000353
9314000,0.0324,0.013523,0.002678,0.000431,0.000235
9315000,0.0324,0.013523,0.002678,0.000431,0.000353
9316000,0.0324,0.013523,0.002678,0.000431,0.000470
9317000,0.0324,0.013523,0.002678,0.000431,0.000118
9318000,0.0324,0.013523,0.002678,0.000431,0.000353
9319000,0.0324,0.013523,0.002678,0.000431,0.000470
9320000,0.0324,0.013523,0.002678,0.000431,0.000353
9321000,0.0324,0.013523,0.002678,0.000431,0.000235
9322000,0.0324,0.013523,0.002678,0.000431,0.000353
9323000,0.0324,0.013523,0.002678,0.000431,0.000470
9324000,0.0324,0.013523,0.002678,0.000431,0.000118
9325000,0.0324,0.013523,0.002678,0.000431,0.000353
9326000,0.0324,0.013523,0.002678,0.000431,0.000470
9327000,0.0324,0.013523,0.002678,0.000431,0.000353
9328000,0.0324,0.013523,0.002678,0.000431,0.000235
9329000,0.0324,0.013523,0.002678,0.000431,0.000353
9330000,0.0324,0.013523,0.002678,0.000431,0.000353
9331000,0.0324,0.013523,0.002678,0.000431,0.000235
9332000,0.0324,0.013523,0.002678,0.000431,0.000353
9333000,0.0324,0.013523,0.002678,0.000431,0.000470
9334000,0.0324,0.013523,0.002678,0.000431,0.000353
9335000,0.0324,0.013523,0.002678,0.000431,0.000235
9336000,0.0324,0.013523,0.002678,0.000431,0.000353
9337000,0.0324,0.013523,0.002678,0.000431,0.000353
9338000,0.0324,0.013523,0.002678,0.000431,0.000235
9339000,0.0324,0.013523,0.002678,0.000431,0.000353
9340000,0.0324,0.013523,0.002678,0.000431,0.000470
9341000,0.0324,0.013523,0.002678,0.000431,0.000353
9342000,0.0324,0.013523,0.002678,0.000431,0.000235
9343000,0.0324,0.013523,0.002678,0.000431,0.000353
9344000,0.0324,0.013523,0.002678,0.000431,0.000353
9345000,0.0324,0.013523,0.002678,0.000431,0.000235
9346000,0.0324,0.013523,0.002678,0.000431,0.000353
9347000,0.0324,0.013523,0.002678,0.000431,0.000470
9348000,0.0324,0.013523,0.002678,0.000431,0.000353
9349000,0.0324,0.013523,0.002678,0.000431,0.000235
9350000,0.0324,0.013523,0.002678,0.000431,0.000353
9351000,0.0324,0.013523,0.002678,0.000431,0.000353
9352000,0.0324,0.013523,0.002678,0.000431,0.000235
9353000,0.0324,0.013523,0.002678,0.000431,0.000353
9354000,0.0324,0.013523,0.002678,0.000431,0.000470
9355000,0.0324,0.013523,0.002678,0.000431,0.000353
9356000,0.0324,0.013523,0.002678,0.000431,0.000235
9357000,0.0324,0.013523,0.002678,0.000431,0.000353
9358000,0.0324,0.013523,0.002678,0.000431,0.000353
9359000,0.0324,0.013523,0.002678,0.000431,0.000235
9360000,0.0324,0.013523,0.002678,0.000431,0.000353
9361000,0.0324,0.013523,0.002678,0.000431,0.000470
9362000,0.0324,0.013523,0.002678,0.000431,0.000353
9363000,0.0324,0.013523,0.002678,0.000431,0.000235
9364000,0.0324,0.013523,0.002678,0.000431,0.000353
9365000,0.0324,0.013523,0.002678,0.000431,0.000353
9366000,0.0324,0.013523,0.002678,0.000431,0.000235
9367000,0.0324,0.013523,0.002678,0.000431,0.000353
9368000,0.0324,0.013523,0.002678,0.000431,0.000470
9369000,0.0324,0.013523,0.002678,0.000431,0.000353
9370000,0.0324,0.013523,0.002678,0.000431,0.000235
9371000,0.0324,0.013523,0.002678,0.000431,0.000353
9372000,0.0324,0.013523,0.002678,0.000431,0.000353
9373000,0.0324,0.013523,0.002678,0.000431,0.000235
9374000,0.0324,0.013523,0.002678,0.000431,0.000353
9375000,0.0324,0.013523,0.002678,0.000431,0.000470
9376000,0.0324,0.013523,0.002678,0.000431,0.000353
9377000,0.0324,0.013523,0.002678,0.000431,0.000235
9378000,0.0324,0.013523,0.002678,0.000431,0.000353
9379000,0.0324,0.013523,0.002678,0.000431,0.000353
9380000,0.0324,0.013523,0.002678,0.000431,0.000235
9381000,0.0324,0.013523,0.002678,0.000431,0.000353
9382000,0.0324,0.013523,0.002678,0.000431,0.000470
9383000,0.0324,0.013523,0.002678,0.000431,0.000353
9384000,0.0324,0.013523,0.002678,0.000431,0.000118
9385000,0.0324,0.013523,0.002678,0.000431,0.000470
9386000,0.0324,0.013523,0.002678,0.000431,0.000353
9387000,0.0324,0.013523,0.002678,0.000431,0.000235
9388000,0.0324,0.013523,0.002678,0.000431,0.000353
9389000,0.0324,0.013523,0.002678,0.000431,0.000470
9390000,0.0324,0.013523,0.002678,0.000431,0.000353
9391000,0.0324,0.013523,0.002678,0.000431,0.000118
9392000,0.0324,0.013523,0.002678,0.000431,0.000470
9393000,0.0324,0.013523,0.002678,0.000431,0.000353
9394000,0.0324,0.013523,0.002678,0.000431,0.000235
9395000,0.0324,0.013523,0.002678,0.000431,0.000353
9396000,0.0324,0.013523,0.002678,0.000431,0.000470
9397000,0.0324,0.013523,0.002678,0.000431,0.000353
9398000,0.0324,0.013523,0.002678,0.000431,0.000118
9399000,0.0324,0.013523,0.002678,0.000431,0.000470
9400000,0.0324,0.013523,0.002678,0.000431,0.000353
9401000,0.0324,0.013523,0.002678,0.000431,0.000235
9402000,0.0324,0.013523,0.002678,0.000431,0.000353
9403000,0.0324,0.013523,0.002678,0.000431,0.000470
9404000,0.0324,0.013523,0.002678,0.000431,0.000235
9405000,0.0324,0.013523,0.002678,0.000431,0.000235
9406000,0.0324,0.013523,0.002678,0.000431,0.000470
9407000,0.0324,0.013523,0.002678,0.000431,0.000353
9408000,0.0324,0.013523,0.002678,0.000431,0.000235
9409000,0.0324,0.013523,0.002678,0.000431,0.000353
9410000,0.0324,0.013523,0.002678,0.000431,0.000470
9411000,0.0324,0.013523,0.002678,0.000431,0.000235
9412000,0.0324,0.013523,0.002678,0.000431,0.000235
9413000,0.0324,0.013523,0.002678,0.000431,0.000470
9414000,0.0324,0.013523,0.002678,0.000431,0.000353
9415000,0.0324,0.013523,0.002678,0.000431,0.000235
9416000,0.0324,0.013523,0.002678,0.000431,0.000353
9417000,0.0324,0.013523,0.002678,0.000431,0.000470
9418000,0.0324,0.013523,0.002678,0.000431,0.000235
9419000,0.0324,0.013523,0.002678,0.000431,0.000235
9420000,0.0324,0.013523,0.002678,0.000431,0.000470
9421000,0.0324,0.013523,0.002678,0.000431,0.000353
9422000,0.0324,0.013523,0.002678,0.000431,0.000235
9423000,0.0324,0.013523,0.002678,0.000431,0.000353
9424000,0.0324,0.013523,0.002678,0.000431,0.000470
9425000,0.0324,0.013523,0.002678,0.000431,0.000235
9426000,0.0324,0.013523,0.002678,0.000431,0.000235
9427000,0.0324,0.013523,0.002678,0.000431,0.000470
9428000,0.0324,0.013523,0.002678,0.000431,0.000353
9429000,0.0324,0.013523,0.002678,0.000431,0.000235
9430000,0.0324,0.013523,0.002678,0.000431,0.000353
9431000,0.0324,0.013523,0.002678,0.000431,0.000470
9432000,0.0324,0.013523,0.002678,0.000431,0.000235
9433000,0.0324,0.013523,0.002678,0.000431,0.000235
9434000,0.0324,0.013523,0.002678,0.000431,0.000470
9435000,0.0324,0.013523,0.002678,0.000431,0.000353
9436000,0.0324,0.013523,0.002678,0.000431,0.000235
9437000,0.0324,0.013523,0.002678,0.000431,0.000353
9438000,0.0324,0.013523,0.002678,0.000431,0.000470
9439000,0.0324,0.013523,0.002678,0.000431,0.000235
9440000,0.0324,0.013523,0.002678,0.000431,0.000235
9441000,0.0324,0.013523,0.002678,0.000431,0.000470
9442000,0.0324,0.013523,0.002678,0.000431,0.000353
9443000,0.0324,0.013523,0.002678,0.000431,0.000235
9444000,0.0324,0.013523,0.002678,0.000431,0.000353
9445000,0.0324,0.013523,0.002678,0.000431,0.000470
9446000,0.0324,0.013523,0.002678,0.000431,0.000118
9447000,0.0324,0.013523,0.002678,0.000431,0.000353
9448000,0.0324,0.013523,0.002678,0.000431,0.000470
9449000,0.0324,0.013523,0.002678,0.000431,0.000353
9450000,0.0324,0.013523,0.002678,0.000431,0.000235
9451000,0.0324,0.013523,0.002678,0.000431,0.000353
9452000,0.0324,0.013523,0.002678,0.000431,0.000470
9453000,0.0324,0.013523,0.002678,0.000431,0.000118
9454000,0.0324,0.013523,0.002678,0.000431,0.000353
9455000,0.0324,0.013523,0.002678,0.000431,0.000470
9456000,0.0324,0.013523,0.002678,0.000431,0.000353
9457000,0.0324,0.013523,0.002678,0.000431,0.000235
9458000,0.0324,0.013523,0.002678,0.000431,0.000353
9459000,0.0324,0.013523,0.002678,0.000431,0.000470
9460000,0.0324,0.013523,0.002678,0.000431,0.000118
9461000,0.0324,0.013523,0.002678,0.000431,0.000353
9462000,0.0324,0.013523,0.002678,0.000431,0.000470
9463000,0.0324,0.013523,0.002678,0.000431,0.000353
9464000,0.0324,0.013523,0.002678,0.000431,0.000235
9465000,0.0324,0.013523,0.002678,0.000431,0.000353
9466000,0.0324,0.013523,0.002678,0.000431,0.000353
9467000,0.0324,0.013523,0.002678,0.000431,0.000235
9468000,0.0324,0.013523,0.002678,0.000431,0.000353
9469000,0.0324,0.013523,0.002678,0.000431,0.000470
9470000,0.0324,0.013523,0.002678,0.000431,0.000353
9471000,0.0324,0.013523,0.002678,0.000431,0.000235
9472000,0.0324,0.013523,0.002678,0.000431,0.000353
9473000,0.0324,0.013523,0.002678,0.000431,0.000353
9474000,0.0324,0.013523,0.002678,0.000431,0.000235
9475000,0.0324,0.013523,0.002678,0.000431,0.000353
9476000,0.0324,0.013523,0.002678,0.000431,0.000470
9477000,0.0324,0.013523,0.002678,0.000431,0.000353
9478000,0.0324,0.013523,0.002678,0.000431,0.000235
9479000,0.0324,0.013523,0.002678,0.000431,0.000353
9480000,0.0324,0.013523,0.002678,0.000431,0.000353
9481000,0.0324,0.013523,0.002678,0.000431,0.000235
9482000,0.0324,0.013523,0.002678,0.000431,0.000353
9483000,0.0324,0.013523,0.002678,0.000431,0.000470
9484000,0.0324,0.013523,0.002678,0.000431,0.000353
9485000,0.0324,0.013523,0.002678,0.000431,0.000235
9486000,0.0324,0.013523,0.002678,0.000431,0.000353
9487000,0.0324,0.013523,0.002678,0.000431,0.000353
9488000,0.0324,0.013523,0.002678,0.000431,0.000235
9489000,0.0324,0.013523,0.002678,0.000431,0.000353
9490000,0.0324,0.013523,0.002678,0.000431,0.000470
9491000,0.0324,0.013523,0.002678,0.000431,0.000353
9492000,0.0324,0.013523,0.002678,0.000431,0.000235
9493000,0.0324,0.013523,0.002678,0.000431,0.000353
9494000,0.0324,0.013523,0.002678,0.000431,0.000353
9495000,0.0324,0.013523,0.002678,0.000431,0.000235
9496000,0.0324,0.013523,0.002678,0.000431,0.000353
9497000,0.0324,0.013523,0.002678,0.000431,0.000470
9498000,0.0324,0.013523,0.002678,0.000431,0.000353
9499000,0.0324,0.013523,0.002678,0.000431,0.000235
9500000,0.0324,0.013523,0.002678,0.000431,0.000353
9501000,0.0324,0.013523,0.002678,0.000431,0.000353
9502000,0.0324,0.013523,0.002678,0.000431,0.000235
9503000,0.0324,0.013523,0.002678,0.000431,0.000353
9504000,0.0324,0.013523,0.002678,0.000431,0.000470
9505000,0.0324,0.013523,0.002678,0.000431,0.000353
9506000,0.0324,0.013523,0.002678,0.000431,0.000235
9507000,0.0324,0.013523,0.002678,0.000431,0.000353
9508000,0.0324,0.013523,0.002678,0.000431,0.000353
9509000,0.0324,0.013523,0.002678,0.000431,0.000235
9510000,0.0324,0.013523,0.002678,0.000431,0.000353
9511000,0.0324,0.013523,0.002678,0.000431,0.000470
9512000,0.0324,0.013523,0.002678,0.000431,0.000353
9513000,0.0324,0.013523,0.002678,0.000431,0.000235
9514000,0.0324,0.013523,0.002678,0.000431,0.000353
9515000,0.0324,0.013523,0.002678,0.000431,0.000353
9516000,0.0324,0.013523,0.002678,0.000431,0.000235
9517000,0.0324,0.013523,0.002678,0.000431,0.000353
9518000,0.0324,0.013523,0.002678,0.000431,0.000470
9519000,0.0324,0.013523,0.002678,0.000431,0.000353
9520000,0.0324,0.013523,0.002678,0.000431,0.000118
9521000,0.0324,0.013523,0.002678,0.000431,0.000470
9522000,0.0324,0.013523,0.002678,0.000431,0.000353
9523000,0.0324,0.013523,0.002678,0.000431,0.000235
9524000,0.0324,0.013523,0.002678,0.000431,0.000353
9525000,0.0324,0.013523,0.002678,0.000431,0.000470
9526000,0.0324,0.013523,0.002678,0.000431,0.000353
9527000,0.0324,0.013523,0.002678,0.000431,0.000118
9528000,0.0324,0.013523,0.002678,0.000431,0.000470
9529000,0.0324,0.013523,0.002678,0.000431,0.000353
9530000,0.0324,0.013523,0.002678,0.000431,0.000235
9531000,0.0324,0.013523,0.002678,0.000431,0.000353
9532000,0.0324,0.013523,0.002678,0.000431,0.000470
9533000,0.0324,0.013523,0.002678,0.000431,0.000353
9534000,0.0324,0.013523,0.002678,0.000431,0.000118
9535000,0.0324,0.013523,0.002678,0.000431,0.000470
9536000,0.0324,0.013523,0.002678,0.000431,0.000353
9537000,0.0324,0.013523,0.002678,0.000431,0.000235
9538000,0.0324,0.013523,0.002678,0.000431,0.000353
9539000,0.0324,0.013523,0.002678,0.000431,0.000470
9540000,0.0324,0.013523,0.002678,0.000431,0.000353
9541000,0.0324,0.013523,0.002678,0.000431,0.000118
9542000,0.0324,0.013523,0.002678,0.000431,0.000470
9543000,0.0324,0.013523,0.002678,0.000431,0.000353
9544000,0.0324,0.013523,0.002678,0.000431,0.000235
9545000,0.0324,0.013523,0.002678,0.000431,0.000353
9546000,0.0324,0.013523,0.002678,0.000431,0.000470
9547000,0.0324,0.013523,0.002678,0.000431,0.000235
9548000,0.0324,0.013523,0.002678,0.000431,0.000235
9549000,0.0324,0.013523,0.002678,0.000431,0.000470
9550000,0.0324,0.013523,0.002678,0.000431,0.000353
9551000,0.0324,0.013523,0.002678,0.000431,0.000235
9552000,0.0324,0.013523,0.002678,0.000431,0.000353
9553000,0.0324,0.013523,0.002678,0.000431,0.000470
9554000,0.0324,0.013523,0.002678,0.000431,0.000235
9555000,0.0324,0.013523,0.002678,0.000431,0.000235
9556000,0.0324,0.013523,0.002678,0.000431,0.000470
9557000,0.0324,0.013523,0.002678,0.000431,0.000353
9558000,0.0324,0.013523,0.002678,0.000431,0.000235
9559000,0.0324,0.013523,0.002678,0.000431,0.000353
9560000,0.0324,0.013523,0.002678,0.000431,0.000470
9561000,0.0324,0.013523,0.002678,0.000431,0.000235
9562000,0.0324,0.013523,0.002678,0.000431,0.000235
9563000,0.0324,0.013523,0.002678,0.000431,0.000470
9564000,0.0324,0.013523,0.002678,0.000431,0.000353
9565000,0.0324,0.013523,0.002678,0.000431,0.000235
9566000,0.0324,0.013523,0.002678,0.000431,0.000353
9567000,0.0324,0.013523,0.002678,0.000431,0.000470
9568000,0.0324,0.013523,0.002678,0.000431,0.000235
9569000,0.0324,0.013523,0.002678,0.000431,0.000235
9570000,0.0324,0.013523,0.002678,0.000431,0.000470
9571000,0.0324,0.013523,0.002678,0.000431,0.000353
9572000,0.0324,0.013523,0.002678,0.000431,0.000235
9573000,0.0324,0.013523,0.002678,0.000431,0.000353
9574000,0.0324,0.013523,0.002678,0.000431,0.000470
9575000,0.0324,0.013523,0.002678,0.000431,0.000235
9576000,0.0324,0.013523,0.002678,0.000431,0.000235
9577000,0.0324,0.013523,0.002678,0.000431,0.000470
9578000,0.0324,0.013523,0.002678,0.000431,0.000353
9579000,0.0324,0.013523,0.002678,0.000431,0.000235
9580000,0.0324,0.013523,0.002678,0.000431,0.000353
9581000,0.0324,0.013523,0.002678,0.000431,0.000470
9582000,0.0324,0.013523,0.002678,0.000431,0.000235
9583000,0.0324,0.013523,0.002678,0.000431,0.000235
9584000,0.0324,0.013523,0.002678,0.000431,0.000470
9585000,0.0324,0.013523,0.002678,0.000431,0.000353
9586000,0.0324,0.013523,0.002678,0.000431,0.000235
9587000,0.0324,0.013523,0.002678,0.000431,0.000353
9588000,0.0324,0.013523,0.002678,0.000431,0.000470
9589000,0.0324,0.013523,0.002678,0.000431,0.000118
9590000,0.0324,0.013523,0.002678,0.000431,0.000353
9591000,0.0324,0.013523,0.002678,0.000431,0.000470
9592000,0.0324,0.013523,0.002678,0.000431,0.000353
9593000,0.0324,0.013523,0.002678,0.000431,0.000235
9594000,0.0324,0.013523,0.002678,0.000431,0.000353
9595000,0.0324,0.013523,0.002678,0.000431,0.000470
9596000,0.0324,0.013523,0.002678,0.000431,0.000118
9597000,0.0324,0.013523,0.002678,0.000431,0.000353
9598000,0.0324,0.013523,0.002678,0.000431,0.000470
9599000,0.0324,0.013523,0.002678,0.000431,0.000353
9600000,0.0324,0.013523,0.002678,0.000431,0.000235
9601000,0.0324,0.013523,0.002678,0.000431,0.000353
9602000,0.0324,0.013523,0.002678,0.000431,0.000470
9603000,0.0324,0.013523,0.002678,0.000431,0.000118
9604000,0.0324,0.013523,0.002678,0.000431,0.000353
9605000,0.0324,0.013523,0.002678,0.000431,0.000470
9606000,0.0324,0.013523,0.002678,0.000431,0.000353
9607000,0.0324,0.013523,0.002678,0.000431,0.000235
9608000,0.0324,0.013523,0.002678,0.000431,0.000353
9609000,0.0324,0.013523,0.002678,0.000431,0.000353
9610000,0.0324,0.013523,0.002678,0.000431,0.000235
9611000,0.0324,0.013523,0.002678,0.000431,0.000353
9612000,0.0324,0.013523,0.002678,0.000431,0.000470
9613000,0.0324,0.013523,0.002678,0.000431,0.000353
9614000,0.0324,0.013523,0.002678,0.000431,0.000235
9615000,0.0324,0.013523,0.002678,0.000431,0.000353
9616000,0.0324,0.013523,0.002678,0.000431,0.000353
9617000,0.0324,0.013523,0.002678,0.000431,0.000235
9618000,0.0324,0.013523,0.002678,0.000431,0.000353
9619000,0.0324,0.013523,0.002678,0.000431,0.000470
9620000,0.0324,0.013523,0.002678,0.000431,0.000353
9621000,0.0324,0.013523,0.002678,0.000431,0.000235
9622000,0.0324,0.013523,0.002678,0.000431,0.000353
9623000,0.0324,0.013523,0.002678,0.000431,0.000353
9624000,0.0324,0.013523,0.002678,0.000431,0.000235
9625000,0.0324,0.013523,0.002678,0.000431,0.000353
9626000,0.0324,0.013523,0.002678,0.000431,0.000470
9627000,0.0324,0.013523,0.002678,0.000431,0.000353
9628000,0.0324,0.013523,0.002678,0.000431,0.000235
9629000,0.0324,0.013523,0.002678,0.000431,0.000353
9630000,0.0324,0.013523,0.002678,0.000431,0.000353
9631000,0.0324,0.013523,0.002678,0.000431,0.000235
9632000,0.0324,0.013523,0.002678,0.000431,0.000353
9633000,0.0324,0.013523,0.002678,0.000431,0.000470
9634000,0.0324,0.013523,0.002678,0.000431,0.000353
9635000,0.0324,0.013523,0.002678,0.000431,0.000235
9636000,0.0324,0.013523,0.002678,0.000431,0.000353
9637000,0.0324,0.013523,0.002678,0.000431,0.000353
9638000,0.0324,0.013523,0.002678,0.000431,0.000235
9639000,0.0324,0.013523,0.002678,0.000431,0.000353
9640000,0.0324,0.013523,0.002678,0.000431,0.000470
9641000,0.0324,0.013523,0.002678,0.000431,0.000353
9642000,0.0324,0.013523,0.002678,0.000431,0.000235
9643000,0.0324,0.013523,0.002678,0.000431,0.000353
9644000,0.0324,0.013523,0.002678,0.000431,0.000353
9645000,0.0324,0.013523,0.002678,0.000431,0.000235
9646000,0.0324,0.013523,0.002678,0.000431,0.000353
9647000,0.0324,0.013523,0.002678,0.000431,0.000470
9648000,0.0324,0.013523,0.002678,0.000431,0.000353
9649000,0.0324,0.013523,0.002678,0.000431,0.000235
9650000,0.0324,0.013523,0.002678,0.000431,0.000353
9651000,0.0324,0.013523,0.002678,0.000431,0.000353
9652000,0.0324,0.013523,0.002678,0.000431,0.000235
9653000,0.0324,0.013523,0.002678,0.000431,0.000353
9654000,0.0324,0.013523,0.002678,0.000431,0.000470
9655000,0.0324,0.013523,0.002678,0.000431,0.000353
9656000,0.0324,0.013523,0.002678,0.000431,0.000235
9657000,0.0324,0.013523,0.002678,0.000431,0.000353
9658000,0.0324,0.013523,0.002678,0.000431,0.000353
9659000,0.0324,0.013523,0.002678,0.000431,0.000235
9660000,0.0324,0.013523,0.002678,0.000431,0.000353
9661000,0.0324,0.013523,0.002678,0.000431,0.000470
9662000,0.0324,0.013523,0.002678,0.000431,0.000353
9663000,0.0324,0.013523,0.002678,0.000431,0.000118
9664000,0.0324,0.013523,0.002678,0.000431,0.000470
9665000,0.0324,0.013523,0.002678,0.000431,0.000353
9666000,0.0324,0.013523,0.002678,0.000431,0.000235
9667000,0.0324,0.013523,0.002678,0.000431,0.000353
9668000,0.0324,0.013523,0.002678,0.000431,0.000470
9669000,0.0324,0.013523,0.002678,0.000431,0.000353
9670000,0.0324,0.013523,0.002678,0.000431,0.000118
9671000,0.0324,0.013523,0.002678,0.000431,0.000470
9672000,0.0324,0.013523,0.002678,0.000431,0.000353
9673000,0.0324,0.013523,0.002678,0.000431,0.000235
9674000,0.0324,0.013523,0.002678,0.000431,0.000353
9675000,0.0324,0.013523,0.002678,0.000431,0.000470
9676000,0.0324,0.013523,0.002678,0.000431,0.000353
9677000,0.0324,0.013523,0.002678,0.000431,0.000118
9678000,0.0324,0.013523,0.002678,0.000431,0.000470
9679000,0.0324,0.013523,0.002678,0.000431,0.000353
9680000,0.0324,0.013523,0.002678,0.000431,0.000235
9681000,0.0324,0.013523,0.002678,0.000431,0.000353
9682000,0.0324,0.013523,0.002678,0.000431,0.000470
9683000,0.0324,0.013523,0.002678,0.000431,0.000235
9684000,0.0324,0.013523,0.002678,0.000431,0.000235
9685000,0.0324,0.013523,0.002678,0.000431,0.000470
9686000,0.0324,0.013523,0.002678,0.000431,0.000353
9687000,0.0324,0.013523,0.002678,0.000431,0.000235
9688000,0.0324,0.013523,0.002678,0.000431,0.000353
9689000,0.0324,0.013523,0.002678,0.000431,0.000470
9690000,0.0324,0.013523,0.002678,0.000431,0.000235
9691000,0.0324,0.013523,0.002678,0.000431,0.000235
9692000,0.0324,0.013523,0.002678,0.000431,0.000470
9693000,0.0324,0.013523,0.002678,0.000431,0.000353
9694000,0.0324,0.013523,0.002678,0.000431,0.000235
9695000,0.0324,0.013523,0.002678,0.000431,0.000353
9696000,0.0324,0.013523,0.002678,0.000431,0.000470
9697000,0.0324,0.013523,0.002678,0.000431,0.000235
9698000,0.0324,0.013523,0.002678,0.000431,0.000235
9699000,0.0324,0.013523,0.002678,0.000431,0.000470
9700000,0.0324,0.013523,0.002678,0.000431,0.000353
9701000,0.0324,0.013523,0.002678,0.000431,0.000235
9702000,0.0324,0.013523,0.002678,0.000431,0.000353
9703000,0.0324,0.013523,0.002678,0.000431,0.000470
9704000,0.0324,0.013523,0.002678,0.000431,0.000235
9705000,0.0324,0.013523,0.002678,0.000431,0.000235
9706000,0.0324,0.013523,0.002678,0.000431,0.000470
9707000,0.0324,0.013523,0.002678,0.000431,0.000353
9708000,0.0324,0.013523,0.002678,0.000431,0.000235
9709000,0.0324,0.013523,0.002678,0.000431,0.000353
9710000,0.0324,0.013523,0.002678,0.000431,0.000470
9711000,0.0324,0.013523,0.002678,0.000431,0.000235
9712000,0.0324,0.013523,0.002678,0.000431,0.000235
9713000,0.0324,0.013523,0.002678,0.000431,0.000470
9714000,0.0324,0.013523,0.002678,0.000431,0.000353
9715000,0.0324,0.013523,0.002678,0.000431,0.000235
9716000,0.0324,0.013523,0.002678,0.000431,0.000353
9717000,0.0324,0.013523,0.002678,0.000431,0.000470
9718000,0.0324,0.013523,0.002678,0.000431,0.000235
9719000,0.0324,0.013523,0.002678,0.000431,0.000235
9720000,0.0324,0.013523,0.002678,0.000431,0.000470
9721000,0.0324,0.013523,0.002678,0.000431,0.000353
9722000,0.0324,0.013523,0.002678,0.000431,0.000235
9723000,0.0324,0.013523,0.002678,0.000431,0.000353
9724000,0.0324,0.013523,0.002678,0.000431,0.000470
9725000,0.0324,0.013523,0.002678,0.000431,0.000118
9726000,0.0324,0.013523,0.002678,0.000431,0.000353
9727000,0.0324,0.013523,0.002678,0.000431,0.000470
9728000,0.0324,0.013523,0.002678,0.000431,0.000353
9729000,0.0324,0.013523,0.002678,0.000431,0.000235
9730000,0.0324,0.013523,0.002678,0.000431,0.000353
9731000,0.0324,0.013523,0.002678,0.000431,0.000470
9732000,0.0324,0.013523,0.002678,0.000431,0.000118
9733000,0.0324,0.013523,0.002678,0.000431,0.000353
9734000,0.0324,0.013523,0.002678,0.000431,0.000470
9735000,0.0324,0.013523,0.002678,0.000431,0.000353
9736000,0.0324,0.013523,0.002678,0.000431,0.000235
9737000,0.0324,0.013523,0.002678,0.000431,0.000353
9738000,0.0324,0.013523,0.002678,0.000431,0.000470
9739000,0.0324,0.013523,0.002678,0.000431,0.000118
9740000,0.0324,0.013523,0.002678,0.000431,0.000353
9741000,0.0324,0.013523,0.002678,0.000431,0.000470
9742000,0.0324,0.013523,0.002678,0.000431,0.000353
9743000,0.0324,0.013523,0.002678,0.000431,0.000235
9744000,0.0324,0.013523,0.002678,0.000431,0.000353
9745000,0.0324,0.013523,0.002678,0.000431,0.000470
9746000,0.0324,0.013523,0.002678,0.000431,0.000118
9747000,0.0324,0.013523,0.002678,0.000431,0.000353
9748000,0.0324,0.013523,0.002678,0.000431,0.000470
9749000,0.0324,0.013523,0.002678,0.000431,0.000353
9750000,0.0324,0.013523,0.002678,0.000431,0.000235
9751000,0.0324,0.013523,0.002678,0.000431,0.000353
9752000,0.0324,0.013523,0.002678,0.000431,0.000353
9753000,0.0324,0.013523,0.002678,0.000431,0.000235
9754000,0.0324,0.013523,0.002678,0.000431,0.000353
9755000,0.0324,0.013523,0.002678,0.000431,0.000470
9756000,0.0324,0.013523,0.002678,0.000431,0.000353
9757000,0.0324,0.013523,0.002678,0.000431,0.000235
9758000,0.0324,0.013523,0.002678,0.000431,0.000353
9759000,0.0324,0.013523,0.002678,0.000431,0.000353
9760000,0.0324,0.013523,0.002678,0.000431,0.000235
9761000,0.0324,0.013523,0.002678,0.000431,0.000353
9762000,0.0324,0.013523,0.002678,0.000431,0.000470
9763000,0.0324,0.013523,0.002678,0.000431,0.000353
9764000,0.0324,0.013523,0.002678,0.000431,0.000235
9765000,0.0324,0.013523,0.002678,0.000431,0.000353
9766000,0.0324,0.013523,0.002678,0.000431,0.000353
9767000,0.0324,0.013523,0.002678,0.000431,0.000235
9768000,0.0324,0.013523,0.002678,0.000431,0.000353
9769000,0.0324,0.013523,0.002678,0.000431,0.000470
9770000,0.0324,0.013523,0.002678,0.000431,0.000353
9771000,0.0324,0.013523,0.002678,0.000431,0.000235
9772000,0.0324,0.013523,0.002678,0.000431,0.000353
9773000,0.0324,0.013523,0.002678,0.000431,0.000353
9774000,0.0324,0.013523,0.002678,0.000431,0.000235
9775000,0.0324,0.013523,0.002678,0.000431,0.000353
9776000,0.0324,0.013523,0.002678,0.000431,0.000470
9777000,0.0324,0.013523,0.002678,0.000431,0.000353
9778000,0.0324,0.013523,0.002678,0.000431,0.000235
9779000,0.0324,0.013523,0.002678,0.000431,0.000353
9780000,0.0324,0.013523,0.002678,0.000431,0.000353
9781000,0.0324,0.013523,0.002678,0.000431,0.000235
9782000,0.0324,0.013523,0.002678,0.000431,0.000353
9783000,0.0324,0.013523,0.002678,0.000431,0.000470
9784000,0.0324,0.013523,0.002678,0.000431,0.000353
9785000,0.0324,0.013523,0.002678,0.000431,0.000235
9786000,0.0324,0.013523,0.002678,0.000431,0.000353
9787000,0.0324,0.013523,0.002678,0.000431,0.000353
9788000,0.0324,0.013523,0.002678,0.000431,0.000235
9789000,0.0324,0.013523,0.002678,0.000431,0.000353
9790000,0.0324,0.013523,0.002678,0.000431,0.000470
9791000,0.0324,0.013523,0.002678,0.000431,0.000353
9792000,0.0324,0.013523,0.002678,0.000431,0.000235
9793000,0.0324,0.013523,0.002678,0.000431,0.000353
9794000,0.0324,0.013523,0.002678,0.000431,0.000353
9795000,0.0324,0.013523,0.002678,0.000431,0.000235
9796000,0.0324,0.013523,0.002678,0.000431,0.000353
9797000,0.0324,0.013523,0.002678,0.000431,0.000470
9798000,0.0324,0.013523,0.002678,0.000431,0.000353
9799000,0.0324,0.013523,0.002678,0.000431,0.000118
9800000,0.0324,0.013523,0.002678,0.000431,0.000470
9801000,0.0324,0.013523,0.002678,0.000431,0.000353
9802000,0.0324,0.013523,0.002678,0.000431,0.000235
9803000,0.0324,0.013523,0.002678,0.000431,0.000353
9804000,0.0324,0.013523,0.002678,0.000431,0.000470
9805000,0.0324,0.013523,0.002678,0.000431,0.000353
9806000,0.0324,0.013523,0.002678,0.000431,0.000118
9807000,0.0324,0.013523,0.002678,0.000431,0.000470
9808000,0.0324,0.013523,0.002678,0.000431,0.000353
9809000,0.0324,0.013523,0.002678,0.000431,0.000235
9810000,0.0324,0.013523,0.002678,0.000431,0.000353
9811000,0.0324,0.013523,0.002678,0.000431,0.000470
9812000,0.0324,0.013523,0.002678,0.000431,0.000353
9813000,0.0324,0.013523,0.002678,0.000431,0.000118
9814000,0.0324,0.013523,0.002678,0.000431,0.000470
9815000,0.0324,0.013523,0.002678,0.000431,0.000353
9816000,0.0324,0.013523,0.002678,0.000431,0.000235
9817000,0.0324,0.013523,0.002678,0.000431,0.000353
9818000,0.0324,0.013523,0.002678,0.000431,0.000470
9819000,0.0324,0.013523,0.002678,0.000431,0.000353
9820000,0.0324,0.013523,0.002678,0.000431,0.000118
9821000,0.0324,0.013523,0.002678,0.000431,0.000470
9822000,0.0324,0.013523,0.002678,0.000431,0.000353
9823000,0.0324,0.013523,0.002678,0.000431,0.000235
9824000,0.0324,0.013523,0.002678,0.000431,0.000353
9825000,0.0324,0.013523,0.002678,0.000431,0.000470
9826000,0.0324,0.013523,0.002678,0.000431,0.000235
9827000,0.0324,0.013523,0.002678,0.000431,0.000235
9828000,0.0324,0.013523,0.002678,0.000431,0.000470
9829000,0.0324,0.013523,0.002678,0.000431,0.000353
9830000,0.0324,0.013523,0.002678,0.000431,0.000235
9831000,0.0324,0.013523,0.002678,0.000431,0.000353
9832000,0.0324,0.013523,0.002678,0.000431,0.000470
9833000,0.0324,0.013523,0.002678,0.000431,0.000235
9834000,0.0324,0.013523,0.002678,0.000431,0.000235
9835000,0.0324,0.013523,0.002678,0.000431,0.000470
9836000,0.0324,0.013523,0.002678,0.000431,0.000353
9837000,0.0324,0.013523,0.002678,0.000431,0.000235
9838000,0.0324,0.013523,0.002678,0.000431,0.000353
9839000,0.0324,0.013523,0.002678,0.000431,0.000470
9840000,0.0324,0.013523,0.002678,0.000431,0.000235
9841000,0.0324,0.013523,0.002678,0.000431,0.000235
9842000,0.0324,0.013523,0.002678,0.000431,0.000470
9843000,0.0324,0.013523,0.002678,0.000431,0.000353
9844000,0.0324,0.013523,0.002678,0.000431,0.000235
9845000,0.0324,0.013523,0.002678,0.000431,0.000353
9846000,0.0324,0.013523,0.002678,0.000431,0.000470
9847000,0.0324,0.013523,0.002678,0.000431,0.000235
9848000,0.0324,0.013523,0.002678,0.000431,0.000235
9849000,0.0324,0.013523,0.002678,0.000431,0.000470
9850000,0.0324,0.013523,0.002678,0.000431,0.000353
9851000,0.0324,0.013523,0.002678,0.000431,0.000235
9852000,0.0324,0.013523,0.002678,0.000431,0.000353
9853000,0.0324,0.013523,0.002678,0.000431,0.000470
9854000,0.0324,0.013523,0.002678,0.000431,0.000235
9855000,0.0324,0.013523,0.002678,0.000431,0.000235
9856000,0.0324,0.013523,0.002678,0.000431,0.000470
9857000,0.0324,0.013523,0.002678,0.000431,0.000353
9858000,0.0324,0.013523,0.002678,0.000431,0.000235
9859000,0.0324,0.013523,0.002678,0.000431,0.000353
9860000,0.0324,0.013523,0.002678,0.000431,0.000470
9861000,0.0324,0.013523,0.002678,0.000431,0.000235
9862000,0.0324,0.013523,0.002678,0.000431,0.000235
9863000,0.0324,0.013523,0.002678,0.000431,0.000470
9864000,0.0324,0.013523,0.002678,0.000431,0.000353
9865000,0.0324,0.013523,0.002678,0.000431,0.000235
9866000,0.0324,0.013523,0.002678,0.000431,0.000353
9867000,0.0324,0.013523,0.002678,0.000431,0.000470
9868000,0.0324,0.013523,0.002678,0.000431,0.000118
9869000,0.0324,0.013523,0.002678,0.000431,0.000353
9870000,0.0324,0.013523,0.002678,0.000431,0.000470
9871000,0.0324,0.013523,0.002678,0.000431,0.000353
9872000,0.0324,0.013523,0.002678,0.000431,0.000235
9873000,0.0324,0.013523,0.002678,0.000431,0.000353
9874000,0.0324,0.013523,0.002678,0.000431,0.000470
9875000,0.0324,0.013523,0.002678,0.000431,0.000118
9876000,0.0324,0.013523,0.002678,0.000431,0.000353
9877000,0.0324,0.013523,0.002678,0.000431,0.000470
9878000,0.0324,0.013523,0.002678,0.000431,0.000353
9879000,0.0324,0.013523,0.002678,0.000431,0.000235
9880000,0.0324,0.013523,0.002678,0.000431,0.000353
9881000,0.0324,0.013523,0.002678,0.000431,0.000470
9882000,0.0324,0.013523,0.002678,0.000431,0.000118
9883000,0.0324,0.013523,0.002678,0.000431,0.000353
9884000,0.0324,0.013523,0.002678,0.000431,0.000470
9885000,0.0324,0.013523,0.002678,0.000431,0.000353
9886000,0.0324,0.013523,0.002678,0.000431,0.000235
9887000,0.0324,0.013523,0.002678,0.000431,0.000353
9888000,0.0324,0.013523,0.002678,0.000431,0.000353
9889000,0.0324,0.013523,0.002678,0.000431,0.000235
9890000,0.0324,0.013523,0.002678,0.000431,0.000353
9891000,0.0324,0.013523,0.002678,0.000431,0.000470
9892000,0.0324,0.013523,0.002678,0.000431,0.000353
9893000,0.0324,0.013523,0.002678,0.000431,0.000235
9894000,0.0324,0.013523,0.002678,0.000431,0.000353
9895000,0.0324,0.013523,0.002678,0.000431,0.000353
9896000,0.0324,0.013523,0.002678,0.000431,0.000235
9897000,0.0324,0.013523,0.002678,0.000431,0.000353
9898000,0.0324,0.013523,0.002678,0.000431,0.000470
9899000,0.0324,0.013523,0.002678,0.000431,0.000353
9900000,0.0324,0.013523,0.002678,0.000431,0.000235
9901000,0.0324,0.013523,0.002678,0.000431,0.000353
9902000,0.0324,0.013523,0.002678,0.000431,0.000353
9903000,0.0324,0.013523,0.002678,0.000431,0.000235
9904000,0.0324,0.013523,0.002678,0.000431,0.000353
9905000,0.0324,0.013523,0.002678,0.000431,0.000470
9906000,0.0324,0.013523,0.002678,0.000431,0.000353
9907000,0.0324,0.013523,0.002678,0.000431,0.000235
9908000,0.0324,0.013523,0.002678,0.000431,0.000353
9909000,0.0324,0.013523,0.002678,0.000431,0.000353
9910000,0.0324,0.013523,0.002678,0.000431,0.000235
9911000,0.0324,0.013523,0.002678,0.000431,0.000353
9912000,0.0324,0.013523,0.002678,0.000431,0.000470
9913000,0.0324,0.013523,0.002678,0.000431,0.000353
9914000,0.0324,0.013523,0.002678,0.000431,0.000235
9915000,0.0324,0.013523,0.002678,0.000431,0.000353
9916000,0.0324,0.013523,0.002678,0.000431,0.000353
9917000,0.0324,0.013523,0.002678,0.000431,0.000235
9918000,0.0324,0.013523,0.002678,0.000431,0.000353
9919000,0.0324,0.013523,0.002678,0.000431,0.000470
9920000,0.0324,0.013523,0.002678,0.000431,0.000353
9921000,0.0324,0.013523,0.002678,0.000431,0.000235
9922000,0.0324,0.013523,0.002678,0.000431,0.000353
9923000,0.0324,0.013523,0.002678,0.000431,0.000353
9924000,0.0324,0.013523,0.002678,0.000431,0.000235
9925000,0.0324,0.013523,0.002678,0.000431,0.000353
9926000,0.0324,0.013523,0.002678,0.000431,0.000470
9927000,0.0324,0.013523,0.002678,0.000431,0.000353
9928000,0.0324,0.013523,0.002678,0.000431,0.000235
9929000,0.0324,0.013523,0.002678,0.000431,0.000353
9930000,0.0324,0.013523,0.002678,0.000431,0.000353
9931000,0.0324,0.013523,0.002678,0.000431,0.000235
9932000,0.0324,0.013523,0.002678,0.000431,0.000353
9933000,0.0324,0.013523,0.002678,0.000431,0.000470
9934000,0.0324,0.013523,0.002678,0.000431,0.000353
9935000,0.0324,0.013523,0.002678,0.000431,0.000235
9936000,0.0324,0.013523,0.002678,0.000431,0.000353
9937000,0.0324,0.013523,0.002678,0.000431,0.000353
9938000,0.0324,0.013523,0.002678,0.000431,0.000235
9939000,0.0324,0.013523,0.002678,0.000431,0.000353
9940000,0.0324,0.013523,0.002678,0.000431,0.000470
9941000,0.0324,0.013523,0.002678,0.000431,0.000353
9942000,0.0324,0.013523,0.002678,0.000431,0.000118
9943000,0.0324,0.013523,0.002678,0.000431,0.000470
9944000,0.0324,0.013523,0.002678,0.000431,0.000353
9945000,0.0324,0.013523,0.002678,0.000431,0.000235
9946000,0.0324,0.013523,0.002678,0.000431,0.000353
9947000,0.0324,0.013523,0.002678,0.000431,0.000470
9948000,0.0324,0.013523,0.002678,0.000431,0.000353
9949000,0.0324,0.013523,0.002678,0.000431,0.000118
9950000,0.0324,0.013523,0.002678,0.000431,0.000470
9951000,0.0324,0.013523,0.002678,0.000431,0.000353
9952000,0.0324,0.013523,0.002678,0.000431,0.000235
9953000,0.0324,0.013523,0.002678,0.000431,0.000353
9954000,0.0324,0.013523,0.002678,0.000431,0.000470
9955000,0.0324,0.013523,0.002678,0.000431,0.000353
9956000,0.0324,0.013523,0.002678,0.000431,0.000118
9957000,0.0324,0.013523,0.002678,0.000431,0.000470
9958000,0.0324,0.013523,0.002678,0.000431,0.000353
9959000,0.0324,0.013523,0.002678,0.000431,0.000235
9960000,0.0324,0.013523,0.002678,0.000431,0.000353
9961000,0.0324,0.013523,0.002678,0.000431,0.000470
9962000,0.0324,0.013523,0.002678,0.000431,0.000235
9963000,0.0324,0.013523,0.002678,0.000431,0.000235
9964000,0.0324,0.013523,0.002678,0.000431,0.000470
9965000,0.0324,0.013523,0.002678,0.000431,0.000353
9966000,0.0324,0.013523,0.002678,0.000431,0.000235
9967000,0.0324,0.013523,0.002678,0.000431,0.000353
9968000,0.0324,0.013523,0.002678,0.000431,0.000470
9969000,0.0324,0.013523,0.002678,0.000431,0.000235
9970000,0.0324,0.013523,0.002678,0.000431,0.000235
9971000,0.0324,0.013523,0.002678,0.000431,0.000470
9972000,0.0324,0.013523,0.002678,0.000431,0.000353
9973000,0.0324,0.013523,0.002678,0.000431,0.000235
9974000,0.0324,0.013523,0.002678,0.000431,0.000353
9975000,0.0324,0.013523,0.002678,0.000431,0.000470
9976000,0.0324,0.013523,0.002678,0.000431,0.000235
9977000,0.0324,0.013523,0.002678,0.000431,0.000235
9978000,0.0324,0.013523,0.002678,0.000431,0.000470
9979000,0.0324,0.013523,0.002678,0.000431,0.000353
9980000,0.0324,0.013523,0.002678,0.000431,0.000235
9981000,0.0324,0.013523,0.002678,0.000431,0.000353
9982000,0.0324,0.013523,0.002678,0.000431,0.000470
9983000,0.0324,0.013523,0.002678,0.000431,0.000235
9984000,0.0324,0.013523,0.002678,0.000431,0.000235
9985000,0.0324,0.013523,0.002678,0.000431,0.000470
9986000,0.0324,0.013523,0.002678,0.000431,0.000353
9987000,0.0324,0.013523,0.002678,0.000431,0.000235
9988000,0.0324,0.013523,0.002678,0.000431,0.000353
9989000,0.0324,0.013523,0.002678,0.000431,0.000470
9990000,0.0324,0.013523,0.002678,0.000431,0.000235
9991000,0.0324,0.013523,0.002678,0.000431,0.000235
9992000,0.0324,0.013523,0.002678,0.000431,0.000470
9993000,0.0324,0.013523,0.002678,0.000431,0.000353
9994000,0.0324,0.013523,0.002678,0.000431,0.000235
9995000,0.0324,0.013523,0.002678,0.000431,0.000353
9996000,0.0324,0.013523,0.002678,0.000431,0.000470
9997000,0.0324,0.013523,0.002678,0.000431,0.000235
9998000,0.0324,0.013523,0.002678,0.000431,0.000235
9999000,0.0324,0.013523,0.002678,0.000431,0.000470
