Cycle,Area(mm^2),PeakDynamic(W),SubthresholdLeakage(W),GateLeakage(W),RunTimeDynamic(W)
100,0.0324,0.013523,0.002678,0.000431,0.000000
200,0.0324,0.013523,0.002678,0.000431,0.000000
300,0.0324,0.013523,0.002678,0.000431,0.000000
400,0.0324,0.013523,0.002678,0.000431,0.000000
500,0.0324,0.013523,0.002678,0.000431,0.000000
600,0.0324,0.013523,0.002678,0.000431,0.000000
700,0.0324,0.013523,0.002678,0.000431,0.000000
800,0.0324,0.013523,0.002678,0.000431,0.000000
900,0.0324,0.013523,0.002678,0.000431,0.000000
1000,0.0324,0.013523,0.002678,0.000431,0.000000
1100,0.0324,0.013523,0.002678,0.000431,0.000000
1200,0.0324,0.013523,0.002678,0.000431,0.000000
1300,0.0324,0.013523,0.002678,0.000431,0.000000
1400,0.0324,0.013523,0.002678,0.000431,0.000000
1500,0.0324,0.013523,0.002678,0.000431,0.000000
1600,0.0324,0.013523,0.002678,0.000431,0.000000
1700,0.0324,0.013523,0.002678,0.000431,0.000000
1800,0.0324,0.013523,0.002678,0.000431,0.000000
1900,0.0324,0.013523,0.002678,0.000431,0.000000
2000,0.0324,0.013523,0.002678,0.000431,0.000000
2100,0.0324,0.013523,0.002678,0.000431,0.000000
2200,0.0324,0.013523,0.002678,0.000431,0.000000
2300,0.0324,0.013523,0.002678,0.000431,0.000000
2400,0.0324,0.013523,0.002678,0.000431,0.000000
2500,0.0324,0.013523,0.002678,0.000431,0.000000
2600,0.0324,0.013523,0.002678,0.000431,0.000000
2700,0.0324,0.013523,0.002678,0.000431,0.000000
2800,0.0324,0.013523,0.002678,0.000431,0.000000
2900,0.0324,0.013523,0.002678,0.000431,0.000000
3000,0.0324,0.013523,0.002678,0.000431,0.000000
3100,0.0324,0.013523,0.002678,0.000431,0.000000
3200,0.0324,0.013523,0.002678,0.000431,0.000000
3300,0.0324,0.013523,0.002678,0.000431,0.000000
3400,0.0324,0.013523,0.002678,0.000431,0.000000
3500,0.0324,0.013523,0.002678,0.000431,0.000000
3600,0.0324,0.013523,0.002678,0.000431,0.000000
3700,0.0324,0.013523,0.002678,0.000431,0.000000
3800,0.0324,0.013523,0.002678,0.000431,0.000000
3900,0.0324,0.013523,0.002678,0.000431,0.000000
4000,0.0324,0.013523,0.002678,0.000431,0.000000
4100,0.0324,0.013523,0.002678,0.000431,0.000000
4200,0.0324,0.013523,0.002678,0.000431,0.000000
4300,0.0324,0.013523,0.002678,0.000431,0.000000
4400,0.0324,0.013523,0.002678,0.000431,0.000000
4500,0.0324,0.013523,0.002678,0.000431,0.000000
4600,0.0324,0.013523,0.002678,0.000431,0.000000
4700,0.0324,0.013523,0.002678,0.000431,0.000000
4800,0.0324,0.013523,0.002678,0.000431,0.000000
4900,0.0324,0.013523,0.002678,0.000431,0.000000
5000,0.0324,0.013523,0.002678,0.000431,0.000000
5100,0.0324,0.013523,0.002678,0.000431,0.000000
5200,0.0324,0.013523,0.002678,0.000431,0.012928
5300,0.0324,0.013523,0.002678,0.000431,0.022330
5400,0.0324,0.013523,0.002678,0.000431,0.012928
5500,0.0324,0.013523,0.002678,0.000431,0.588816
5600,0.0324,0.013523,0.002678,0.000431,1.600734
5700,0.0324,0.013523,0.002678,0.000431,1.246974
5800,0.0324,0.013523,0.002678,0.000431,2.362316
5900,0.0324,0.013523,0.002678,0.000431,4.622383
6000,0.0324,0.013523,0.002678,0.000431,3.413018
6100,0.0324,0.013523,0.002678,0.000431,2.777191
6200,0.0324,0.013523,0.002678,0.000431,3.472958
6300,0.0324,0.013523,0.002678,0.000431,4.189880
6400,0.0324,0.013523,0.002678,0.000431,4.310934
6500,0.0324,0.013523,0.002678,0.000431,4.332089
6600,0.0324,0.013523,0.002678,0.000431,4.389678
6700,0.0324,0.013523,0.002678,0.000431,4.207509
6800,0.0324,0.013523,0.002678,0.000431,4.184003
6900,0.0324,0.013523,0.002678,0.000431,3.873729
7000,0.0324,0.013523,0.002678,0.000431,3.773830
7100,0.0324,0.013523,0.002678,0.000431,4.068826
7200,0.0324,0.013523,0.002678,0.000431,4.719932
7300,0.0324,0.013523,0.002678,0.000431,4.031217
7400,0.0324,0.013523,0.002678,0.000431,4.419060
7500,0.0324,0.013523,0.002678,0.000431,4.889172
7600,0.0324,0.013523,0.002678,0.000431,4.638837
7700,0.0324,0.013523,0.002678,0.000431,4.563619
7800,0.0324,0.013523,0.002678,0.000431,4.359120
7900,0.0324,0.013523,0.002678,0.000431,3.678632
8000,0.0324,0.013523,0.002678,0.000431,3.636322
8100,0.0324,0.013523,0.002678,0.000431,3.568156
8200,0.0324,0.013523,0.002678,0.000431,3.522320
8300,0.0324,0.013523,0.002678,0.000431,3.511742
8400,0.0324,0.013523,0.002678,0.000431,3.519969
8500,0.0324,0.013523,0.002678,0.000431,3.119198
8600,0.0324,0.013523,0.002678,0.000431,3.021650
8700,0.0324,0.013523,0.002678,0.000431,2.664364
8800,0.0324,0.013523,0.002678,0.000431,2.759562
8900,0.0324,0.013523,0.002678,0.000431,2.492773
9000,0.0324,0.013523,0.002678,0.000431,1.977999
9100,0.0324,0.013523,0.002678,0.000431,1.961545
9200,0.0324,0.013523,0.002678,0.000431,1.719437
9300,0.0324,0.013523,0.002678,0.000431,1.771150
9400,0.0324,0.013523,0.002678,0.000431,1.927462
9500,0.0324,0.013523,0.002678,0.000431,1.248149
9600,0.0324,0.013523,0.002678,0.000431,1.310439
9700,0.0324,0.013523,0.002678,0.000431,1.463226
9800,0.0324,0.013523,0.002678,0.000431,1.141199
9900,0.0324,0.013523,0.002678,0.000431,1.034248
10000,0.0324,0.013523,0.002678,0.000431,1.288109
10100,0.0324,0.013523,0.002678,0.000431,0.860306
10200,0.0324,0.013523,0.002678,0.000431,1.027196
10300,0.0324,0.013523,0.002678,0.000431,0.920246
10400,0.0324,0.013523,0.002678,0.000431,0.819171
10500,0.0324,0.013523,0.002678,0.000431,0.927297
10600,0.0324,0.013523,0.002678,0.000431,0.802717
10700,0.0324,0.013523,0.002678,0.000431,0.817996
10800,0.0324,0.013523,0.002678,0.000431,0.783913
10900,0.0324,0.013523,0.002678,0.000431,0.713396
11000,0.0324,0.013523,0.002678,0.000431,0.660508
11100,0.0324,0.013523,0.002678,0.000431,0.714571
11200,0.0324,0.013523,0.002678,0.000431,0.606445
11300,0.0324,0.013523,0.002678,0.000431,0.617023
11400,0.0324,0.013523,0.002678,0.000431,0.607621
11500,0.0324,0.013523,0.002678,0.000431,0.517124
11600,0.0324,0.013523,0.002678,0.000431,0.571187
11700,0.0324,0.013523,0.002678,0.000431,0.567661
11800,0.0324,0.013523,0.002678,0.000431,0.454834
11900,0.0324,0.013523,0.002678,0.000431,0.508897
12000,0.0324,0.013523,0.002678,0.000431,0.461886
12100,0.0324,0.013523,0.002678,0.000431,0.410173
12200,0.0324,0.013523,0.002678,0.000431,0.475989
12300,0.0324,0.013523,0.002678,0.000431,0.363162
12400,0.0324,0.013523,0.002678,0.000431,0.394895
12500,0.0324,0.013523,0.002678,0.000431,0.350234
12600,0.0324,0.013523,0.002678,0.000431,0.320852
12700,0.0324,0.013523,0.002678,0.000431,0.359636
12800,0.0324,0.013523,0.002678,0.000431,0.267964
12900,0.0324,0.013523,0.002678,0.000431,0.310274
13000,0.0324,0.013523,0.002678,0.000431,0.292645
13100,0.0324,0.013523,0.002678,0.000431,0.257387
13200,0.0324,0.013523,0.002678,0.000431,0.271490
13300,0.0324,0.013523,0.002678,0.000431,0.250335
13400,0.0324,0.013523,0.002678,0.000431,0.206850
13500,0.0324,0.013523,0.002678,0.000431,0.225654
13600,0.0324,0.013523,0.002678,0.000431,0.188045
13700,0.0324,0.013523,0.002678,0.000431,0.183344
13800,0.0324,0.013523,0.002678,0.000431,0.163364
13900,0.0324,0.013523,0.002678,0.000431,0.151611
14000,0.0324,0.013523,0.002678,0.000431,0.145735
14100,0.0324,0.013523,0.002678,0.000431,0.119879
14200,0.0324,0.013523,0.002678,0.000431,0.122229
14300,0.0324,0.013523,0.002678,0.000431,0.097548
14400,0.0324,0.013523,0.002678,0.000431,0.103425
14500,0.0324,0.013523,0.002678,0.000431,0.088146
14600,0.0324,0.013523,0.002678,0.000431,0.084620
14700,0.0324,0.013523,0.002678,0.000431,0.089321
14800,0.0324,0.013523,0.002678,0.000431,0.068166
14900,0.0324,0.013523,0.002678,0.000431,0.071692
15000,0.0324,0.013523,0.002678,0.000431,0.065816
15100,0.0324,0.013523,0.002678,0.000431,0.058764
15200,0.0324,0.013523,0.002678,0.000431,0.054063
15300,0.0324,0.013523,0.002678,0.000431,0.061115
15400,0.0324,0.013523,0.002678,0.000431,0.048187
15500,0.0324,0.013523,0.002678,0.000431,0.048187
15600,0.0324,0.013523,0.002678,0.000431,0.058764
15700,0.0324,0.013523,0.002678,0.000431,0.036434
15800,0.0324,0.013523,0.002678,0.000431,0.054063
15900,0.0324,0.013523,0.002678,0.000431,0.041135
16000,0.0324,0.013523,0.002678,0.000431,0.039960
16100,0.0324,0.013523,0.002678,0.000431,0.037609
16200,0.0324,0.013523,0.002678,0.000431,0.039960
16300,0.0324,0.013523,0.002678,0.000431,0.034083
16400,0.0324,0.013523,0.002678,0.000431,0.030557
16500,0.0324,0.013523,0.002678,0.000431,0.038784
16600,0.0324,0.013523,0.002678,0.000431,0.029382
16700,0.0324,0.013523,0.002678,0.000431,0.031733
16800,0.0324,0.013523,0.002678,0.000431,0.028207
16900,0.0324,0.013523,0.002678,0.000431,0.024681
17000,0.0324,0.013523,0.002678,0.000431,0.025856
17100,0.0324,0.013523,0.002678,0.000431,0.028207
17200,0.0324,0.013523,0.002678,0.000431,0.015279
17300,0.0324,0.013523,0.002678,0.000431,0.022330
17400,0.0324,0.013523,0.002678,0.000431,0.022330
17500,0.0324,0.013523,0.002678,0.000431,0.017629
17600,0.0324,0.013523,0.002678,0.000431,0.019980
17700,0.0324,0.013523,0.002678,0.000431,0.022330
17800,0.0324,0.013523,0.002678,0.000431,0.017629
17900,0.0324,0.013523,0.002678,0.000431,0.016454
18000,0.0324,0.013523,0.002678,0.000431,0.022330
18100,0.0324,0.013523,0.002678,0.000431,0.016454
18200,0.0324,0.013523,0.002678,0.000431,0.012928
18300,0.0324,0.013523,0.002678,0.000431,0.021155
18400,0.0324,0.013523,0.002678,0.000431,0.018805
18500,0.0324,0.013523,0.002678,0.000431,0.014103
18600,0.0324,0.013523,0.002678,0.000431,0.015279
18700,0.0324,0.013523,0.002678,0.000431,0.018805
18800,0.0324,0.013523,0.002678,0.000431,0.010578
18900,0.0324,0.013523,0.002678,0.000431,0.014103
19000,0.0324,0.013523,0.002678,0.000431,0.017629
19100,0.0324,0.013523,0.002678,0.000431,0.010578
19200,0.0324,0.013523,0.002678,0.000431,0.010578
19300,0.0324,0.013523,0.002678,0.000431,0.014103
19400,0.0324,0.013523,0.002678,0.000431,0.011753
19500,0.0324,0.013523,0.002678,0.000431,0.011753
19600,0.0324,0.013523,0.002678,0.000431,0.014103
19700,0.0324,0.013523,0.002678,0.000431,0.010578
19800,0.0324,0.013523,0.002678,0.000431,0.010578
19900,0.0324,0.013523,0.002678,0.000431,0.010578
20000,0.0324,0.013523,0.002678,0.000431,0.009402
20100,0.0324,0.013523,0.002678,0.000431,0.008227
20200,0.0324,0.013523,0.002678,0.000431,0.010578
20300,0.0324,0.013523,0.002678,0.000431,0.007052
20400,0.0324,0.013523,0.002678,0.000431,0.010578
20500,0.0324,0.013523,0.002678,0.000431,0.008227
20600,0.0324,0.013523,0.002678,0.000431,0.009402
20700,0.0324,0.013523,0.002678,0.000431,0.010578
20800,0.0324,0.013523,0.002678,0.000431,0.007052
20900,0.0324,0.013523,0.002678,0.000431,0.011753
21000,0.0324,0.013523,0.002678,0.000431,0.009402
21100,0.0324,0.013523,0.002678,0.000431,0.007052
21200,0.0324,0.013523,0.002678,0.000431,0.009402
21300,0.0324,0.013523,0.002678,0.000431,0.009402
21400,0.0324,0.013523,0.002678,0.000431,0.005876
21500,0.0324,0.013523,0.002678,0.000431,0.007052
21600,0.0324,0.013523,0.002678,0.000431,0.009402
21700,0.0324,0.013523,0.002678,0.000431,0.004701
21800,0.0324,0.013523,0.002678,0.000431,0.005876
21900,0.0324,0.013523,0.002678,0.000431,0.012928
22000,0.0324,0.013523,0.002678,0.000431,0.000000
22100,0.0324,0.013523,0.002678,0.000431,0.009402
22200,0.0324,0.013523,0.002678,0.000431,0.008227
22300,0.0324,0.013523,0.002678,0.000431,0.004701
22400,0.0324,0.013523,0.002678,0.000431,0.009402
22500,0.0324,0.013523,0.002678,0.000431,0.008227
22600,0.0324,0.013523,0.002678,0.000431,0.004701
22700,0.0324,0.013523,0.002678,0.000431,0.009402
22800,0.0324,0.013523,0.002678,0.000431,0.008227
22900,0.0324,0.013523,0.002678,0.000431,0.005876
23000,0.0324,0.013523,0.002678,0.000431,0.008227
23100,0.0324,0.013523,0.002678,0.000431,0.008227
23200,0.0324,0.013523,0.002678,0.000431,0.005876
23300,0.0324,0.013523,0.002678,0.000431,0.005876
23400,0.0324,0.013523,0.002678,0.000431,0.007052
23500,0.0324,0.013523,0.002678,0.000431,0.002351
23600,0.0324,0.013523,0.002678,0.000431,0.003526
23700,0.0324,0.013523,0.002678,0.000431,0.008227
23800,0.0324,0.013523,0.002678,0.000431,0.002351
23900,0.0324,0.013523,0.002678,0.000431,0.002351
24000,0.0324,0.013523,0.002678,0.000431,0.005876
24100,0.0324,0.013523,0.002678,0.000431,0.005876
24200,0.0324,0.013523,0.002678,0.000431,0.002351
24300,0.0324,0.013523,0.002678,0.000431,0.005876
24400,0.0324,0.013523,0.002678,0.000431,0.005876
24500,0.0324,0.013523,0.002678,0.000431,0.002351
24600,0.0324,0.013523,0.002678,0.000431,0.005876
24700,0.0324,0.013523,0.002678,0.000431,0.002351
24800,0.0324,0.013523,0.002678,0.000431,0.004701
24900,0.0324,0.013523,0.002678,0.000431,0.003526
25000,0.0324,0.013523,0.002678,0.000431,0.003526
25100,0.0324,0.013523,0.002678,0.000431,0.003526
25200,0.0324,0.013523,0.002678,0.000431,0.002351
25300,0.0324,0.013523,0.002678,0.000431,0.004701
25400,0.0324,0.013523,0.002678,0.000431,0.001175
25500,0.0324,0.013523,0.002678,0.000431,0.004701
25600,0.0324,0.013523,0.002678,0.000431,0.003526
25700,0.0324,0.013523,0.002678,0.000431,0.002351
25800,0.0324,0.013523,0.002678,0.000431,0.007052
25900,0.0324,0.013523,0.002678,0.000431,0.002351
26000,0.0324,0.013523,0.002678,0.000431,0.002351
26100,0.0324,0.013523,0.002678,0.000431,0.005876
26200,0.0324,0.013523,0.002678,0.000431,0.003526
26300,0.0324,0.013523,0.002678,0.000431,0.000000
26400,0.0324,0.013523,0.002678,0.000431,0.004701
26500,0.0324,0.013523,0.002678,0.000431,0.004701
26600,0.0324,0.013523,0.002678,0.000431,0.002351
26700,0.0324,0.013523,0.002678,0.000431,0.003526
26800,0.0324,0.013523,0.002678,0.000431,0.004701
26900,0.0324,0.013523,0.002678,0.000431,0.002351
27000,0.0324,0.013523,0.002678,0.000431,0.004701
27100,0.0324,0.013523,0.002678,0.000431,0.003526
27200,0.0324,0.013523,0.002678,0.000431,0.004701
27300,0.0324,0.013523,0.002678,0.000431,0.002351
27400,0.0324,0.013523,0.002678,0.000431,0.003526
27500,0.0324,0.013523,0.002678,0.000431,0.003526
27600,0.0324,0.013523,0.002678,0.000431,0.002351
27700,0.0324,0.013523,0.002678,0.000431,0.003526
27800,0.0324,0.013523,0.002678,0.000431,0.002351
27900,0.0324,0.013523,0.002678,0.000431,0.003526
28000,0.0324,0.013523,0.002678,0.000431,0.002351
28100,0.0324,0.013523,0.002678,0.000431,0.003526
28200,0.0324,0.013523,0.002678,0.000431,0.003526
28300,0.0324,0.013523,0.002678,0.000431,0.002351
28400,0.0324,0.013523,0.002678,0.000431,0.002351
28500,0.0324,0.013523,0.002678,0.000431,0.004701
28600,0.0324,0.013523,0.002678,0.000431,0.002351
28700,0.0324,0.013523,0.002678,0.000431,0.002351
28800,0.0324,0.013523,0.002678,0.000431,0.004701
28900,0.0324,0.013523,0.002678,0.000431,0.002351
29000,0.0324,0.013523,0.002678,0.000431,0.003526
29100,0.0324,0.013523,0.002678,0.000431,0.001175
29200,0.0324,0.013523,0.002678,0.000431,0.002351
29300,0.0324,0.013523,0.002678,0.000431,0.005876
29400,0.0324,0.013523,0.002678,0.000431,0.001175
29500,0.0324,0.013523,0.002678,0.000431,0.003526
29600,0.0324,0.013523,0.002678,0.000431,0.003526
29700,0.0324,0.013523,0.002678,0.000431,0.002351
29800,0.0324,0.013523,0.002678,0.000431,0.003526
29900,0.0324,0.013523,0.002678,0.000431,0.003526
30000,0.0324,0.013523,0.002678,0.000431,0.002351
30100,0.0324,0.013523,0.002678,0.000431,0.003526
30200,0.0324,0.013523,0.002678,0.000431,0.003526
30300,0.0324,0.013523,0.002678,0.000431,0.002351
30400,0.0324,0.013523,0.002678,0.000431,0.003526
30500,0.0324,0.013523,0.002678,0.000431,0.002351
30600,0.0324,0.013523,0.002678,0.000431,0.003526
30700,0.0324,0.013523,0.002678,0.000431,0.002351
30800,0.0324,0.013523,0.002678,0.000431,0.003526
30900,0.0324,0.013523,0.002678,0.000431,0.003526
31000,0.0324,0.013523,0.002678,0.000431,0.002351
31100,0.0324,0.013523,0.002678,0.000431,0.002351
31200,0.0324,0.013523,0.002678,0.000431,0.002351
31300,0.0324,0.013523,0.002678,0.000431,0.003526
31400,0.0324,0.013523,0.002678,0.000431,0.003526
31500,0.0324,0.013523,0.002678,0.000431,0.002351
31600,0.0324,0.013523,0.002678,0.000431,0.002351
31700,0.0324,0.013523,0.002678,0.000431,0.003526
31800,0.0324,0.013523,0.002678,0.000431,0.002351
31900,0.0324,0.013523,0.002678,0.000431,0.003526
32000,0.0324,0.013523,0.002678,0.000431,0.002351
32100,0.0324,0.013523,0.002678,0.000431,0.003526
32200,0.0324,0.013523,0.002678,0.000431,0.003526
32300,0.0324,0.013523,0.002678,0.000431,0.002351
32400,0.0324,0.013523,0.002678,0.000431,0.003526
32500,0.0324,0.013523,0.002678,0.000431,0.003526
32600,0.0324,0.013523,0.002678,0.000431,0.001175
32700,0.0324,0.013523,0.002678,0.000431,0.004701
32800,0.0324,0.013523,0.002678,0.000431,0.002351
32900,0.0324,0.013523,0.002678,0.000431,0.002351
33000,0.0324,0.013523,0.002678,0.000431,0.004701
33100,0.0324,0.013523,0.002678,0.000431,0.001175
33200,0.0324,0.013523,0.002678,0.000431,0.003526
33300,0.0324,0.013523,0.002678,0.000431,0.003526
33400,0.0324,0.013523,0.002678,0.000431,0.002351
33500,0.0324,0.013523,0.002678,0.000431,0.003526
33600,0.0324,0.013523,0.002678,0.000431,0.003526
33700,0.0324,0.013523,0.002678,0.000431,0.002351
33800,0.0324,0.013523,0.002678,0.000431,0.002351
33900,0.0324,0.013523,0.002678,0.000431,0.002351
34000,0.0324,0.013523,0.002678,0.000431,0.003526
34100,0.0324,0.013523,0.002678,0.000431,0.002351
34200,0.0324,0.013523,0.002678,0.000431,0.004701
34300,0.0324,0.013523,0.002678,0.000431,0.002351
34400,0.0324,0.013523,0.002678,0.000431,0.002351
34500,0.0324,0.013523,0.002678,0.000431,0.004701
34600,0.0324,0.013523,0.002678,0.000431,0.001175
34700,0.0324,0.013523,0.002678,0.000431,0.002351
34800,0.0324,0.013523,0.002678,0.000431,0.003526
34900,0.0324,0.013523,0.002678,0.000431,0.003526
35000,0.0324,0.013523,0.002678,0.000431,0.002351
35100,0.0324,0.013523,0.002678,0.000431,0.003526
35200,0.0324,0.013523,0.002678,0.000431,0.003526
35300,0.0324,0.013523,0.002678,0.000431,0.002351
35400,0.0324,0.013523,0.002678,0.000431,0.003526
35500,0.0324,0.013523,0.002678,0.000431,0.003526
35600,0.0324,0.013523,0.002678,0.000431,0.002351
35700,0.0324,0.013523,0.002678,0.000431,0.003526
35800,0.0324,0.013523,0.002678,0.000431,0.001175
35900,0.0324,0.013523,0.002678,0.000431,0.004701
36000,0.0324,0.013523,0.002678,0.000431,0.001175
36100,0.0324,0.013523,0.002678,0.000431,0.004701
36200,0.0324,0.013523,0.002678,0.000431,0.003526
36300,0.0324,0.013523,0.002678,0.000431,0.001175
36400,0.0324,0.013523,0.002678,0.000431,0.004701
36500,0.0324,0.013523,0.002678,0.000431,0.003526
36600,0.0324,0.013523,0.002678,0.000431,0.001175
36700,0.0324,0.013523,0.002678,0.000431,0.003526
36800,0.0324,0.013523,0.002678,0.000431,0.003526
36900,0.0324,0.013523,0.002678,0.000431,0.002351
37000,0.0324,0.013523,0.002678,0.000431,0.004701
37100,0.0324,0.013523,0.002678,0.000431,0.003526
37200,0.0324,0.013523,0.002678,0.000431,0.001175
37300,0.0324,0.013523,0.002678,0.000431,0.003526
37400,0.0324,0.013523,0.002678,0.000431,0.003526
37500,0.0324,0.013523,0.002678,0.000431,0.002351
37600,0.0324,0.013523,0.002678,0.000431,0.002351
37700,0.0324,0.013523,0.002678,0.000431,0.004701
37800,0.0324,0.013523,0.002678,0.000431,0.002351
37900,0.0324,0.013523,0.002678,0.000431,0.002351
38000,0.0324,0.013523,0.002678,0.000431,0.004701
38100,0.0324,0.013523,0.002678,0.000431,0.001175
38200,0.0324,0.013523,0.002678,0.000431,0.002351
38300,0.0324,0.013523,0.002678,0.000431,0.003526
38400,0.0324,0.013523,0.002678,0.000431,0.002351
38500,0.0324,0.013523,0.002678,0.000431,0.002351
38600,0.0324,0.013523,0.002678,0.000431,0.004701
38700,0.0324,0.013523,0.002678,0.000431,0.002351
38800,0.0324,0.013523,0.002678,0.000431,0.002351
38900,0.0324,0.013523,0.002678,0.000431,0.004701
39000,0.0324,0.013523,0.002678,0.000431,0.002351
39100,0.0324,0.013523,0.002678,0.000431,0.002351
39200,0.0324,0.013523,0.002678,0.000431,0.004701
39300,0.0324,0.013523,0.002678,0.000431,0.002351
39400,0.0324,0.013523,0.002678,0.000431,0.001175
39500,0.0324,0.013523,0.002678,0.000431,0.004701
39600,0.0324,0.013523,0.002678,0.000431,0.003526
39700,0.0324,0.013523,0.002678,0.000431,0.001175
39800,0.0324,0.013523,0.002678,0.000431,0.004701
39900,0.0324,0.013523,0.002678,0.000431,0.002351
40000,0.0324,0.013523,0.002678,0.000431,0.001175
40100,0.0324,0.013523,0.002678,0.000431,0.003526
40200,0.0324,0.013523,0.002678,0.000431,0.003526
40300,0.0324,0.013523,0.002678,0.000431,0.002351
40400,0.0324,0.013523,0.002678,0.000431,0.002351
40500,0.0324,0.013523,0.002678,0.000431,0.004701
40600,0.0324,0.013523,0.002678,0.000431,0.002351
40700,0.0324,0.013523,0.002678,0.000431,0.002351
40800,0.0324,0.013523,0.002678,0.000431,0.004701
40900,0.0324,0.013523,0.002678,0.000431,0.002351
41000,0.0324,0.013523,0.002678,0.000431,0.002351
41100,0.0324,0.013523,0.002678,0.000431,0.003526
41200,0.0324,0.013523,0.002678,0.000431,0.002351
41300,0.0324,0.013523,0.002678,0.000431,0.002351
41400,0.0324,0.013523,0.002678,0.000431,0.002351
41500,0.0324,0.013523,0.002678,0.000431,0.002351
41600,0.0324,0.013523,0.002678,0.000431,0.004701
41700,0.0324,0.013523,0.002678,0.000431,0.002351
41800,0.0324,0.013523,0.002678,0.000431,0.003526
41900,0.0324,0.013523,0.002678,0.000431,0.003526
42000,0.0324,0.013523,0.002678,0.000431,0.002351
42100,0.0324,0.013523,0.002678,0.000431,0.003526
42200,0.0324,0.013523,0.002678,0.000431,0.002351
42300,0.0324,0.013523,0.002678,0.000431,0.003526
42400,0.0324,0.013523,0.002678,0.000431,0.003526
42500,0.0324,0.013523,0.002678,0.000431,0.003526
42600,0.0324,0.013523,0.002678,0.000431,0.001175
42700,0.0324,0.013523,0.002678,0.000431,0.004701
42800,0.0324,0.013523,0.002678,0.000431,0.003526
42900,0.0324,0.013523,0.002678,0.000431,0.002351
43000,0.0324,0.013523,0.002678,0.000431,0.003526
43100,0.0324,0.013523,0.002678,0.000431,0.001175
43200,0.0324,0.013523,0.002678,0.000431,0.004701
43300,0.0324,0.013523,0.002678,0.000431,0.001175
43400,0.0324,0.013523,0.002678,0.000431,0.003526
43500,0.0324,0.013523,0.002678,0.000431,0.003526
43600,0.0324,0.013523,0.002678,0.000431,0.001175
43700,0.0324,0.013523,0.002678,0.000431,0.003526
43800,0.0324,0.013523,0.002678,0.000431,0.002351
43900,0.0324,0.013523,0.002678,0.000431,0.002351
44000,0.0324,0.013523,0.002678,0.000431,0.004701
44100,0.0324,0.013523,0.002678,0.000431,0.000000
44200,0.0324,0.013523,0.002678,0.000431,0.003526
44300,0.0324,0.013523,0.002678,0.000431,0.001175
44400,0.0324,0.013523,0.002678,0.000431,0.003526
44500,0.0324,0.013523,0.002678,0.000431,0.003526
44600,0.0324,0.013523,0.002678,0.000431,0.001175
44700,0.0324,0.013523,0.002678,0.000431,0.004701
44800,0.0324,0.013523,0.002678,0.000431,0.001175
44900,0.0324,0.013523,0.002678,0.000431,0.003526
45000,0.0324,0.013523,0.002678,0.000431,0.002351
45100,0.0324,0.013523,0.002678,0.000431,0.003526
45200,0.0324,0.013523,0.002678,0.000431,0.002351
45300,0.0324,0.013523,0.002678,0.000431,0.001175
45400,0.0324,0.013523,0.002678,0.000431,0.003526
45500,0.0324,0.013523,0.002678,0.000431,0.002351
45600,0.0324,0.013523,0.002678,0.000431,0.002351
45700,0.0324,0.013523,0.002678,0.000431,0.005876
45800,0.0324,0.013523,0.002678,0.000431,0.001175
45900,0.0324,0.013523,0.002678,0.000431,0.002351
46000,0.0324,0.013523,0.002678,0.000431,0.003526
46100,0.0324,0.013523,0.002678,0.000431,0.002351
46200,0.0324,0.013523,0.002678,0.000431,0.003526
46300,0.0324,0.013523,0.002678,0.000431,0.003526
46400,0.0324,0.013523,0.002678,0.000431,0.002351
46500,0.0324,0.013523,0.002678,0.000431,0.003526
46600,0.0324,0.013523,0.002678,0.000431,0.002351
46700,0.0324,0.013523,0.002678,0.000431,0.001175
46800,0.0324,0.013523,0.002678,0.000431,0.004701
46900,0.0324,0.013523,0.002678,0.000431,0.003526
47000,0.0324,0.013523,0.002678,0.000431,0.002351
47100,0.0324,0.013523,0.002678,0.000431,0.004701
47200,0.0324,0.013523,0.002678,0.000431,0.001175
47300,0.0324,0.013523,0.002678,0.000431,0.003526
47400,0.0324,0.013523,0.002678,0.000431,0.003526
47500,0.0324,0.013523,0.002678,0.000431,0.002351
47600,0.0324,0.013523,0.002678,0.000431,0.003526
47700,0.0324,0.013523,0.002678,0.000431,0.002351
47800,0.0324,0.013523,0.002678,0.000431,0.003526
47900,0.0324,0.013523,0.002678,0.000431,0.003526
48000,0.0324,0.013523,0.002678,0.000431,0.002351
48100,0.0324,0.013523,0.002678,0.000431,0.003526
48200,0.0324,0.013523,0.002678,0.000431,0.002351
48300,0.0324,0.013523,0.002678,0.000431,0.004701
48400,0.0324,0.013523,0.002678,0.000431,0.001175
48500,0.0324,0.013523,0.002678,0.000431,0.002351
48600,0.0324,0.013523,0.002678,0.000431,0.003526
48700,0.0324,0.013523,0.002678,0.000431,0.002351
48800,0.0324,0.013523,0.002678,0.000431,0.003526
48900,0.0324,0.013523,0.002678,0.000431,0.002351
49000,0.0324,0.013523,0.002678,0.000431,0.003526
49100,0.0324,0.013523,0.002678,0.000431,0.001175
49200,0.0324,0.013523,0.002678,0.000431,0.002351
49300,0.0324,0.013523,0.002678,0.000431,0.004701
49400,0.0324,0.013523,0.002678,0.000431,0.002351
49500,0.0324,0.013523,0.002678,0.000431,0.002351
49600,0.0324,0.013523,0.002678,0.000431,0.004701
49700,0.0324,0.013523,0.002678,0.000431,0.002351
49800,0.0324,0.013523,0.002678,0.000431,0.002351
49900,0.0324,0.013523,0.002678,0.000431,0.004701
50000,0.0324,0.013523,0.002678,0.000431,0.002351
50100,0.0324,0.013523,0.002678,0.000431,0.002351
50200,0.0324,0.013523,0.002678,0.000431,0.005876
50300,0.0324,0.013523,0.002678,0.000431,0.001175
50400,0.0324,0.013523,0.002678,0.000431,0.002351
50500,0.0324,0.013523,0.002678,0.000431,0.004701
50600,0.0324,0.013523,0.002678,0.000431,0.002351
50700,0.0324,0.013523,0.002678,0.000431,0.002351
50800,0.0324,0.013523,0.002678,0.000431,0.004701
50900,0.0324,0.013523,0.002678,0.000431,0.002351
51000,0.0324,0.013523,0.002678,0.000431,0.002351
51100,0.0324,0.013523,0.002678,0.000431,0.004701
51200,0.0324,0.013523,0.002678,0.000431,0.002351
51300,0.0324,0.013523,0.002678,0.000431,0.001175
51400,0.0324,0.013523,0.002678,0.000431,0.005876
51500,0.0324,0.013523,0.002678,0.000431,0.002351
51600,0.0324,0.013523,0.002678,0.000431,0.002351
51700,0.0324,0.013523,0.002678,0.000431,0.004701
51800,0.0324,0.013523,0.002678,0.000431,0.002351
51900,0.0324,0.013523,0.002678,0.000431,0.001175
52000,0.0324,0.013523,0.002678,0.000431,0.003526
52100,0.0324,0.013523,0.002678,0.000431,0.004701
52200,0.0324,0.013523,0.002678,0.000431,0.001175
52300,0.0324,0.013523,0.002678,0.000431,0.003526
52400,0.0324,0.013523,0.002678,0.000431,0.003526
52500,0.0324,0.013523,0.002678,0.000431,0.001175
52600,0.0324,0.013523,0.002678,0.000431,0.003526
52700,0.0324,0.013523,0.002678,0.000431,0.004701
52800,0.0324,0.013523,0.002678,0.000431,0.000000
52900,0.0324,0.013523,0.002678,0.000431,0.003526
53000,0.0324,0.013523,0.002678,0.000431,0.003526
53100,0.0324,0.013523,0.002678,0.000431,0.000000
53200,0.0324,0.013523,0.002678,0.000431,0.002351
53300,0.0324,0.013523,0.002678,0.000431,0.003526
53400,0.0324,0.013523,0.002678,0.000431,0.002351
53500,0.0324,0.013523,0.002678,0.000431,0.001175
53600,0.0324,0.013523,0.002678,0.000431,0.005876
53700,0.0324,0.013523,0.002678,0.000431,0.001175
53800,0.0324,0.013523,0.002678,0.000431,0.002351
53900,0.0324,0.013523,0.002678,0.000431,0.003526
54000,0.0324,0.013523,0.002678,0.000431,0.003526
54100,0.0324,0.013523,0.002678,0.000431,0.001175
54200,0.0324,0.013523,0.002678,0.000431,0.004701
54300,0.0324,0.013523,0.002678,0.000431,0.000000
54400,0.0324,0.013523,0.002678,0.000431,0.004701
54500,0.0324,0.013523,0.002678,0.000431,0.000000
54600,0.0324,0.013523,0.002678,0.000431,0.001175
54700,0.0324,0.013523,0.002678,0.000431,0.003526
54800,0.0324,0.013523,0.002678,0.000431,0.002351
54900,0.0324,0.013523,0.002678,0.000431,0.002351
55000,0.0324,0.013523,0.002678,0.000431,0.002351
55100,0.0324,0.013523,0.002678,0.000431,0.002351
55200,0.0324,0.013523,0.002678,0.000431,0.003526
55300,0.0324,0.013523,0.002678,0.000431,0.002351
55400,0.0324,0.013523,0.002678,0.000431,0.003526
55500,0.0324,0.013523,0.002678,0.000431,0.002351
55600,0.0324,0.013523,0.002678,0.000431,0.002351
55700,0.0324,0.013523,0.002678,0.000431,0.002351
55800,0.0324,0.013523,0.002678,0.000431,0.002351
55900,0.0324,0.013523,0.002678,0.000431,0.002351
56000,0.0324,0.013523,0.002678,0.000431,0.002351
56100,0.0324,0.013523,0.002678,0.000431,0.002351
56200,0.0324,0.013523,0.002678,0.000431,0.002351
56300,0.0324,0.013523,0.002678,0.000431,0.002351
56400,0.0324,0.013523,0.002678,0.000431,0.001175
56500,0.0324,0.013523,0.002678,0.000431,0.003526
56600,0.0324,0.013523,0.002678,0.000431,0.002351
56700,0.0324,0.013523,0.002678,0.000431,0.002351
56800,0.0324,0.013523,0.002678,0.000431,0.002351
56900,0.0324,0.013523,0.002678,0.000431,0.002351
57000,0.0324,0.013523,0.002678,0.000431,0.002351
57100,0.0324,0.013523,0.002678,0.000431,0.001175
57200,0.0324,0.013523,0.002678,0.000431,0.002351
57300,0.0324,0.013523,0.002678,0.000431,0.001175
57400,0.0324,0.013523,0.002678,0.000431,0.001175
57500,0.0324,0.013523,0.002678,0.000431,0.003526
57600,0.0324,0.013523,0.002678,0.000431,0.002351
57700,0.0324,0.013523,0.002678,0.000431,0.001175
57800,0.0324,0.013523,0.002678,0.000431,0.001175
57900,0.0324,0.013523,0.002678,0.000431,0.003526
58000,0.0324,0.013523,0.002678,0.000431,0.002351
58100,0.0324,0.013523,0.002678,0.000431,0.001175
58200,0.0324,0.013523,0.002678,0.000431,0.003526
58300,0.0324,0.013523,0.002678,0.000431,0.002351
58400,0.0324,0.013523,0.002678,0.000431,0.001175
58500,0.0324,0.013523,0.002678,0.000431,0.002351
58600,0.0324,0.013523,0.002678,0.000431,0.002351
58700,0.0324,0.013523,0.002678,0.000431,0.001175
58800,0.0324,0.013523,0.002678,0.000431,0.003526
58900,0.0324,0.013523,0.002678,0.000431,0.001175
59000,0.0324,0.013523,0.002678,0.000431,0.002351
59100,0.0324,0.013523,0.002678,0.000431,0.003526
59200,0.0324,0.013523,0.002678,0.000431,0.001175
59300,0.0324,0.013523,0.002678,0.000431,0.002351
59400,0.0324,0.013523,0.002678,0.000431,0.002351
59500,0.0324,0.013523,0.002678,0.000431,0.002351
59600,0.0324,0.013523,0.002678,0.000431,0.001175
59700,0.0324,0.013523,0.002678,0.000431,0.003526
59800,0.0324,0.013523,0.002678,0.000431,0.002351
59900,0.0324,0.013523,0.002678,0.000431,0.001175
60000,0.0324,0.013523,0.002678,0.000431,0.003526
60100,0.0324,0.013523,0.002678,0.000431,0.002351
60200,0.0324,0.013523,0.002678,0.000431,0.000000
60300,0.0324,0.013523,0.002678,0.000431,0.004701
60400,0.0324,0.013523,0.002678,0.000431,0.001175
60500,0.0324,0.013523,0.002678,0.000431,0.002351
60600,0.0324,0.013523,0.002678,0.000431,0.001175
60700,0.0324,0.013523,0.002678,0.000431,0.002351
60800,0.0324,0.013523,0.002678,0.000431,0.003526
60900,0.0324,0.013523,0.002678,0.000431,0.002351
61000,0.0324,0.013523,0.002678,0.000431,0.002351
61100,0.0324,0.013523,0.002678,0.000431,0.002351
61200,0.0324,0.013523,0.002678,0.000431,0.002351
61300,0.0324,0.013523,0.002678,0.000431,0.002351
61400,0.0324,0.013523,0.002678,0.000431,0.001175
61500,0.0324,0.013523,0.002678,0.000431,0.002351
61600,0.0324,0.013523,0.002678,0.000431,0.002351
61700,0.0324,0.013523,0.002678,0.000431,0.002351
61800,0.0324,0.013523,0.002678,0.000431,0.001175
61900,0.0324,0.013523,0.002678,0.000431,0.003526
62000,0.0324,0.013523,0.002678,0.000431,0.000000
62100,0.0324,0.013523,0.002678,0.000431,0.003526
62200,0.0324,0.013523,0.002678,0.000431,0.003526
62300,0.0324,0.013523,0.002678,0.000431,0.000000
62400,0.0324,0.013523,0.002678,0.000431,0.003526
62500,0.0324,0.013523,0.002678,0.000431,0.003526
62600,0.0324,0.013523,0.002678,0.000431,0.000000
62700,0.0324,0.013523,0.002678,0.000431,0.004701
62800,0.0324,0.013523,0.002678,0.000431,0.002351
62900,0.0324,0.013523,0.002678,0.000431,0.000000
63000,0.0324,0.013523,0.002678,0.000431,0.004701
63100,0.0324,0.013523,0.002678,0.000431,0.002351
63200,0.0324,0.013523,0.002678,0.000431,0.000000
63300,0.0324,0.013523,0.002678,0.000431,0.002351
63400,0.0324,0.013523,0.002678,0.000431,0.003526
63500,0.0324,0.013523,0.002678,0.000431,0.001175
63600,0.0324,0.013523,0.002678,0.000431,0.002351
63700,0.0324,0.013523,0.002678,0.000431,0.002351
63800,0.0324,0.013523,0.002678,0.000431,0.002351
63900,0.0324,0.013523,0.002678,0.000431,0.001175
64000,0.0324,0.013523,0.002678,0.000431,0.003526
64100,0.0324,0.013523,0.002678,0.000431,0.001175
64200,0.0324,0.013523,0.002678,0.000431,0.002351
64300,0.0324,0.013523,0.002678,0.000431,0.001175
64400,0.0324,0.013523,0.002678,0.000431,0.003526
64500,0.0324,0.013523,0.002678,0.000431,0.001175
64600,0.0324,0.013523,0.002678,0.000431,0.002351
64700,0.0324,0.013523,0.002678,0.000431,0.003526
64800,0.0324,0.013523,0.002678,0.000431,0.001175
64900,0.0324,0.013523,0.002678,0.000431,0.002351
65000,0.0324,0.013523,0.002678,0.000431,0.003526
65100,0.0324,0.013523,0.002678,0.000431,0.001175
65200,0.0324,0.013523,0.002678,0.000431,0.002351
65300,0.0324,0.013523,0.002678,0.000431,0.003526
65400,0.0324,0.013523,0.002678,0.000431,0.001175
65500,0.0324,0.013523,0.002678,0.000431,0.001175
65600,0.0324,0.013523,0.002678,0.000431,0.003526
65700,0.0324,0.013523,0.002678,0.000431,0.002351
65800,0.0324,0.013523,0.002678,0.000431,0.002351
65900,0.0324,0.013523,0.002678,0.000431,0.002351
66000,0.0324,0.013523,0.002678,0.000431,0.002351
66100,0.0324,0.013523,0.002678,0.000431,0.000000
66200,0.0324,0.013523,0.002678,0.000431,0.003526
66300,0.0324,0.013523,0.002678,0.000431,0.003526
66400,0.0324,0.013523,0.002678,0.000431,0.000000
66500,0.0324,0.013523,0.002678,0.000431,0.003526
66600,0.0324,0.013523,0.002678,0.000431,0.002351
66700,0.0324,0.013523,0.002678,0.000431,0.000000
66800,0.0324,0.013523,0.002678,0.000431,0.002351
66900,0.0324,0.013523,0.002678,0.000431,0.003526
67000,0.0324,0.013523,0.002678,0.000431,0.000000
67100,0.0324,0.013523,0.002678,0.000431,0.003526
67200,0.0324,0.013523,0.002678,0.000431,0.001175
67300,0.0324,0.013523,0.002678,0.000431,0.002351
67400,0.0324,0.013523,0.002678,0.000431,0.001175
67500,0.0324,0.013523,0.002678,0.000431,0.004701
67600,0.0324,0.013523,0.002678,0.000431,0.001175
67700,0.0324,0.013523,0.002678,0.000431,0.001175
67800,0.0324,0.013523,0.002678,0.000431,0.003526
67900,0.0324,0.013523,0.002678,0.000431,0.002351
68000,0.0324,0.013523,0.002678,0.000431,0.002351
68100,0.0324,0.013523,0.002678,0.000431,0.002351
68200,0.0324,0.013523,0.002678,0.000431,0.002351
68300,0.0324,0.013523,0.002678,0.000431,0.001175
68400,0.0324,0.013523,0.002678,0.000431,0.004701
68500,0.0324,0.013523,0.002678,0.000431,0.001175
68600,0.0324,0.013523,0.002678,0.000431,0.001175
68700,0.0324,0.013523,0.002678,0.000431,0.003526
68800,0.0324,0.013523,0.002678,0.000431,0.002351
68900,0.0324,0.013523,0.002678,0.000431,0.001175
69000,0.0324,0.013523,0.002678,0.000431,0.003526
69100,0.0324,0.013523,0.002678,0.000431,0.002351
69200,0.0324,0.013523,0.002678,0.000431,0.001175
69300,0.0324,0.013523,0.002678,0.000431,0.003526
69400,0.0324,0.013523,0.002678,0.000431,0.002351
69500,0.0324,0.013523,0.002678,0.000431,0.001175
69600,0.0324,0.013523,0.002678,0.000431,0.003526
69700,0.0324,0.013523,0.002678,0.000431,0.002351
69800,0.0324,0.013523,0.002678,0.000431,0.001175
69900,0.0324,0.013523,0.002678,0.000431,0.003526
70000,0.0324,0.013523,0.002678,0.000431,0.002351
70100,0.0324,0.013523,0.002678,0.000431,0.001175
70200,0.0324,0.013523,0.002678,0.000431,0.003526
70300,0.0324,0.013523,0.002678,0.000431,0.002351
70400,0.0324,0.013523,0.002678,0.000431,0.001175
70500,0.0324,0.013523,0.002678,0.000431,0.002351
70600,0.0324,0.013523,0.002678,0.000431,0.003526
70700,0.0324,0.013523,0.002678,0.000431,0.001175
70800,0.0324,0.013523,0.002678,0.000431,0.003526
70900,0.0324,0.013523,0.002678,0.000431,0.002351
71000,0.0324,0.013523,0.002678,0.000431,0.000000
71100,0.0324,0.013523,0.002678,0.000431,0.004701
71200,0.0324,0.013523,0.002678,0.000431,0.002351
71300,0.0324,0.013523,0.002678,0.000431,0.001175
71400,0.0324,0.013523,0.002678,0.000431,0.001175
71500,0.0324,0.013523,0.002678,0.000431,0.002351
71600,0.0324,0.013523,0.002678,0.000431,0.002351
71700,0.0324,0.013523,0.002678,0.000431,0.001175
71800,0.0324,0.013523,0.002678,0.000431,0.003526
71900,0.0324,0.013523,0.002678,0.000431,0.002351
72000,0.0324,0.013523,0.002678,0.000431,0.001175
72100,0.0324,0.013523,0.002678,0.000431,0.003526
72200,0.0324,0.013523,0.002678,0.000431,0.001175
72300,0.0324,0.013523,0.002678,0.000431,0.002351
72400,0.0324,0.013523,0.002678,0.000431,0.002351
72500,0.0324,0.013523,0.002678,0.000431,0.002351
72600,0.0324,0.013523,0.002678,0.000431,0.001175
72700,0.0324,0.013523,0.002678,0.000431,0.003526
72800,0.0324,0.013523,0.002678,0.000431,0.001175
72900,0.0324,0.013523,0.002678,0.000431,0.002351
73000,0.0324,0.013523,0.002678,0.000431,0.004701
73100,0.0324,0.013523,0.002678,0.000431,0.000000
73200,0.0324,0.013523,0.002678,0.000431,0.002351
73300,0.0324,0.013523,0.002678,0.000431,0.003526
73400,0.0324,0.013523,0.002678,0.000431,0.001175
73500,0.0324,0.013523,0.002678,0.000431,0.004701
73600,0.0324,0.013523,0.002678,0.000431,0.001175
73700,0.0324,0.013523,0.002678,0.000431,0.001175
73800,0.0324,0.013523,0.002678,0.000431,0.002351
73900,0.0324,0.013523,0.002678,0.000431,0.003526
74000,0.0324,0.013523,0.002678,0.000431,0.001175
74100,0.0324,0.013523,0.002678,0.000431,0.002351
74200,0.0324,0.013523,0.002678,0.000431,0.003526
74300,0.0324,0.013523,0.002678,0.000431,0.001175
74400,0.0324,0.013523,0.002678,0.000431,0.002351
74500,0.0324,0.013523,0.002678,0.000431,0.003526
74600,0.0324,0.013523,0.002678,0.000431,0.001175
74700,0.0324,0.013523,0.002678,0.000431,0.002351
74800,0.0324,0.013523,0.002678,0.000431,0.003526
74900,0.0324,0.013523,0.002678,0.000431,0.001175
75000,0.0324,0.013523,0.002678,0.000431,0.002351
75100,0.0324,0.013523,0.002678,0.000431,0.003526
75200,0.0324,0.013523,0.002678,0.000431,0.001175
75300,0.0324,0.013523,0.002678,0.000431,0.002351
75400,0.0324,0.013523,0.002678,0.000431,0.003526
75500,0.0324,0.013523,0.002678,0.000431,0.001175
75600,0.0324,0.013523,0.002678,0.000431,0.002351
75700,0.0324,0.013523,0.002678,0.000431,0.002351
75800,0.0324,0.013523,0.002678,0.000431,0.001175
75900,0.0324,0.013523,0.002678,0.000431,0.001175
76000,0.0324,0.013523,0.002678,0.000431,0.001175
76100,0.0324,0.013523,0.002678,0.000431,0.001175
76200,0.0324,0.013523,0.002678,0.000431,0.002351
76300,0.0324,0.013523,0.002678,0.000431,0.002351
76400,0.0324,0.013523,0.002678,0.000431,0.001175
76500,0.0324,0.013523,0.002678,0.000431,0.002351
76600,0.0324,0.013523,0.002678,0.000431,0.001175
76700,0.0324,0.013523,0.002678,0.000431,0.002351
76800,0.0324,0.013523,0.002678,0.000431,0.001175
76900,0.0324,0.013523,0.002678,0.000431,0.001175
77000,0.0324,0.013523,0.002678,0.000431,0.002351
77100,0.0324,0.013523,0.002678,0.000431,0.001175
77200,0.0324,0.013523,0.002678,0.000431,0.001175
77300,0.0324,0.013523,0.002678,0.000431,0.002351
77400,0.0324,0.013523,0.002678,0.000431,0.001175
77500,0.0324,0.013523,0.002678,0.000431,0.001175
77600,0.0324,0.013523,0.002678,0.000431,0.001175
77700,0.0324,0.013523,0.002678,0.000431,0.002351
77800,0.0324,0.013523,0.002678,0.000431,0.000000
77900,0.0324,0.013523,0.002678,0.000431,0.002351
78000,0.0324,0.013523,0.002678,0.000431,0.001175
78100,0.0324,0.013523,0.002678,0.000431,0.001175
78200,0.0324,0.013523,0.002678,0.000431,0.001175
78300,0.0324,0.013523,0.002678,0.000431,0.001175
78400,0.0324,0.013523,0.002678,0.000431,0.002351
78500,0.0324,0.013523,0.002678,0.000431,0.000000
78600,0.0324,0.013523,0.002678,0.000431,0.002351
78700,0.0324,0.013523,0.002678,0.000431,0.001175
78800,0.0324,0.013523,0.002678,0.000431,0.001175
78900,0.0324,0.013523,0.002678,0.000431,0.000000
79000,0.0324,0.013523,0.002678,0.000431,0.003526
79100,0.0324,0.013523,0.002678,0.000431,0.001175
79200,0.0324,0.013523,0.002678,0.000431,0.001175
79300,0.0324,0.013523,0.002678,0.000431,0.001175
79400,0.0324,0.013523,0.002678,0.000431,0.001175
79500,0.0324,0.013523,0.002678,0.000431,0.001175
79600,0.0324,0.013523,0.002678,0.000431,0.001175
79700,0.0324,0.013523,0.002678,0.000431,0.001175
79800,0.0324,0.013523,0.002678,0.000431,0.002351
79900,0.0324,0.013523,0.002678,0.000431,0.000000
80000,0.0324,0.013523,0.002678,0.000431,0.002351
80100,0.0324,0.013523,0.002678,0.000431,0.001175
80200,0.0324,0.013523,0.002678,0.000431,0.001175
80300,0.0324,0.013523,0.002678,0.000431,0.001175
80400,0.0324,0.013523,0.002678,0.000431,0.002351
80500,0.0324,0.013523,0.002678,0.000431,0.001175
80600,0.0324,0.013523,0.002678,0.000431,0.001175
80700,0.0324,0.013523,0.002678,0.000431,0.002351
80800,0.0324,0.013523,0.002678,0.000431,0.001175
80900,0.0324,0.013523,0.002678,0.000431,0.002351
81000,0.0324,0.013523,0.002678,0.000431,0.000000
81100,0.0324,0.013523,0.002678,0.000431,0.001175
81200,0.0324,0.013523,0.002678,0.000431,0.002351
81300,0.0324,0.013523,0.002678,0.000431,0.000000
81400,0.0324,0.013523,0.002678,0.000431,0.002351
81500,0.0324,0.013523,0.002678,0.000431,0.001175
81600,0.0324,0.013523,0.002678,0.000431,0.001175
81700,0.0324,0.013523,0.002678,0.000431,0.002351
81800,0.0324,0.013523,0.002678,0.000431,0.001175
81900,0.0324,0.013523,0.002678,0.000431,0.001175
82000,0.0324,0.013523,0.002678,0.000431,0.001175
82100,0.0324,0.013523,0.002678,0.000431,0.002351
82200,0.0324,0.013523,0.002678,0.000431,0.000000
82300,0.0324,0.013523,0.002678,0.000431,0.002351
82400,0.0324,0.013523,0.002678,0.000431,0.002351
82500,0.0324,0.013523,0.002678,0.000431,0.000000
82600,0.0324,0.013523,0.002678,0.000431,0.002351
82700,0.0324,0.013523,0.002678,0.000431,0.002351
82800,0.0324,0.013523,0.002678,0.000431,0.000000
82900,0.0324,0.013523,0.002678,0.000431,0.002351
83000,0.0324,0.013523,0.002678,0.000431,0.002351
83100,0.0324,0.013523,0.002678,0.000431,0.000000
83200,0.0324,0.013523,0.002678,0.000431,0.002351
83300,0.0324,0.013523,0.002678,0.000431,0.002351
83400,0.0324,0.013523,0.002678,0.000431,0.000000
83500,0.0324,0.013523,0.002678,0.000431,0.001175
83600,0.0324,0.013523,0.002678,0.000431,0.003526
83700,0.0324,0.013523,0.002678,0.000431,0.000000
83800,0.0324,0.013523,0.002678,0.000431,0.001175
83900,0.0324,0.013523,0.002678,0.000431,0.003526
84000,0.0324,0.013523,0.002678,0.000431,0.000000
84100,0.0324,0.013523,0.002678,0.000431,0.002351
84200,0.0324,0.013523,0.002678,0.000431,0.002351
84300,0.0324,0.013523,0.002678,0.000431,0.000000
84400,0.0324,0.013523,0.002678,0.000431,0.002351
84500,0.0324,0.013523,0.002678,0.000431,0.001175
84600,0.0324,0.013523,0.002678,0.000431,0.001175
84700,0.0324,0.013523,0.002678,0.000431,0.001175
84800,0.0324,0.013523,0.002678,0.000431,0.001175
84900,0.0324,0.013523,0.002678,0.000431,0.001175
85000,0.0324,0.013523,0.002678,0.000431,0.001175
85100,0.0324,0.013523,0.002678,0.000431,0.001175
85200,0.0324,0.013523,0.002678,0.000431,0.002351
85300,0.0324,0.013523,0.002678,0.000431,0.000000
85400,0.0324,0.013523,0.002678,0.000431,0.002351
85500,0.0324,0.013523,0.002678,0.000431,0.000000
85600,0.0324,0.013523,0.002678,0.000431,0.002351
85700,0.0324,0.013523,0.002678,0.000431,0.001175
85800,0.0324,0.013523,0.002678,0.000431,0.002351
85900,0.0324,0.013523,0.002678,0.000431,0.000000
86000,0.0324,0.013523,0.002678,0.000431,0.001175
86100,0.0324,0.013523,0.002678,0.000431,0.001175
86200,0.0324,0.013523,0.002678,0.000431,0.000000
86300,0.0324,0.013523,0.002678,0.000431,0.001175
86400,0.0324,0.013523,0.002678,0.000431,0.001175
86500,0.0324,0.013523,0.002678,0.000431,0.001175
86600,0.0324,0.013523,0.002678,0.000431,0.002351
86700,0.0324,0.013523,0.002678,0.000431,0.000000
86800,0.0324,0.013523,0.002678,0.000431,0.001175
86900,0.0324,0.013523,0.002678,0.000431,0.002351
87000,0.0324,0.013523,0.002678,0.000431,0.000000
87100,0.0324,0.013523,0.002678,0.000431,0.002351
87200,0.0324,0.013523,0.002678,0.000431,0.002351
87300,0.0324,0.013523,0.002678,0.000431,0.000000
87400,0.0324,0.013523,0.002678,0.000431,0.003526
87500,0.0324,0.013523,0.002678,0.000431,0.001175
87600,0.0324,0.013523,0.002678,0.000431,0.000000
87700,0.0324,0.013523,0.002678,0.000431,0.001175
87800,0.0324,0.013523,0.002678,0.000431,0.003526
87900,0.0324,0.013523,0.002678,0.000431,0.000000
88000,0.0324,0.013523,0.002678,0.000431,0.002351
88100,0.0324,0.013523,0.002678,0.000431,0.002351
88200,0.0324,0.013523,0.002678,0.000431,0.000000
88300,0.0324,0.013523,0.002678,0.000431,0.002351
88400,0.0324,0.013523,0.002678,0.000431,0.002351
88500,0.0324,0.013523,0.002678,0.000431,0.000000
88600,0.0324,0.013523,0.002678,0.000431,0.001175
88700,0.0324,0.013523,0.002678,0.000431,0.002351
88800,0.0324,0.013523,0.002678,0.000431,0.001175
88900,0.0324,0.013523,0.002678,0.000431,0.001175
89000,0.0324,0.013523,0.002678,0.000431,0.002351
89100,0.0324,0.013523,0.002678,0.000431,0.000000
89200,0.0324,0.013523,0.002678,0.000431,0.002351
89300,0.0324,0.013523,0.002678,0.000431,0.002351
89400,0.0324,0.013523,0.002678,0.000431,0.000000
89500,0.0324,0.013523,0.002678,0.000431,0.002351
89600,0.0324,0.013523,0.002678,0.000431,0.001175
89700,0.0324,0.013523,0.002678,0.000431,0.001175
89800,0.0324,0.013523,0.002678,0.000431,0.002351
89900,0.0324,0.013523,0.002678,0.000431,0.001175
90000,0.0324,0.013523,0.002678,0.000431,0.001175
90100,0.0324,0.013523,0.002678,0.000431,0.002351
90200,0.0324,0.013523,0.002678,0.000431,0.001175
90300,0.0324,0.013523,0.002678,0.000431,0.001175
90400,0.0324,0.013523,0.002678,0.000431,0.001175
90500,0.0324,0.013523,0.002678,0.000431,0.001175
90600,0.0324,0.013523,0.002678,0.000431,0.002351
90700,0.0324,0.013523,0.002678,0.000431,0.001175
90800,0.0324,0.013523,0.002678,0.000431,0.001175
90900,0.0324,0.013523,0.002678,0.000431,0.003526
91000,0.0324,0.013523,0.002678,0.000431,0.000000
91100,0.0324,0.013523,0.002678,0.000431,0.001175
91200,0.0324,0.013523,0.002678,0.000431,0.002351
91300,0.0324,0.013523,0.002678,0.000431,0.001175
91400,0.0324,0.013523,0.002678,0.000431,0.001175
91500,0.0324,0.013523,0.002678,0.000431,0.002351
91600,0.0324,0.013523,0.002678,0.000431,0.000000
91700,0.0324,0.013523,0.002678,0.000431,0.002351
91800,0.0324,0.013523,0.002678,0.000431,0.000000
91900,0.0324,0.013523,0.002678,0.000431,0.002351
92000,0.0324,0.013523,0.002678,0.000431,0.001175
92100,0.0324,0.013523,0.002678,0.000431,0.001175
92200,0.0324,0.013523,0.002678,0.000431,0.002351
92300,0.0324,0.013523,0.002678,0.000431,0.001175
92400,0.0324,0.013523,0.002678,0.000431,0.001175
92500,0.0324,0.013523,0.002678,0.000431,0.002351
92600,0.0324,0.013523,0.002678,0.000431,0.001175
92700,0.0324,0.013523,0.002678,0.000431,0.001175
92800,0.0324,0.013523,0.002678,0.000431,0.002351
92900,0.0324,0.013523,0.002678,0.000431,0.001175
93000,0.0324,0.013523,0.002678,0.000431,0.000000
93100,0.0324,0.013523,0.002678,0.000431,0.003526
93200,0.0324,0.013523,0.002678,0.000431,0.001175
93300,0.0324,0.013523,0.002678,0.000431,0.001175
93400,0.0324,0.013523,0.002678,0.000431,0.002351
93500,0.0324,0.013523,0.002678,0.000431,0.001175
93600,0.0324,0.013523,0.002678,0.000431,0.001175
93700,0.0324,0.013523,0.002678,0.000431,0.001175
93800,0.0324,0.013523,0.002678,0.000431,0.001175
93900,0.0324,0.013523,0.002678,0.000431,0.002351
94000,0.0324,0.013523,0.002678,0.000431,0.001175
94100,0.0324,0.013523,0.002678,0.000431,0.001175
94200,0.0324,0.013523,0.002678,0.000431,0.001175
94300,0.0324,0.013523,0.002678,0.000431,0.001175
94400,0.0324,0.013523,0.002678,0.000431,0.001175
94500,0.0324,0.013523,0.002678,0.000431,0.001175
94600,0.0324,0.013523,0.002678,0.000431,0.002351
94700,0.0324,0.013523,0.002678,0.000431,0.001175
94800,0.0324,0.013523,0.002678,0.000431,0.001175
94900,0.0324,0.013523,0.002678,0.000431,0.002351
95000,0.0324,0.013523,0.002678,0.000431,0.000000
95100,0.0324,0.013523,0.002678,0.000431,0.002351
95200,0.0324,0.013523,0.002678,0.000431,0.001175
95300,0.0324,0.013523,0.002678,0.000431,0.000000
95400,0.0324,0.013523,0.002678,0.000431,0.002351
95500,0.0324,0.013523,0.002678,0.000431,0.002351
95600,0.0324,0.013523,0.002678,0.000431,0.000000
95700,0.0324,0.013523,0.002678,0.000431,0.002351
95800,0.0324,0.013523,0.002678,0.000431,0.001175
95900,0.0324,0.013523,0.002678,0.000431,0.001175
96000,0.0324,0.013523,0.002678,0.000431,0.001175
96100,0.0324,0.013523,0.002678,0.000431,0.002351
96200,0.0324,0.013523,0.002678,0.000431,0.000000
96300,0.0324,0.013523,0.002678,0.000431,0.001175
96400,0.0324,0.013523,0.002678,0.000431,0.001175
96500,0.0324,0.013523,0.002678,0.000431,0.002351
96600,0.0324,0.013523,0.002678,0.000431,0.001175
96700,0.0324,0.013523,0.002678,0.000431,0.001175
96800,0.0324,0.013523,0.002678,0.000431,0.001175
96900,0.0324,0.013523,0.002678,0.000431,0.000000
97000,0.0324,0.013523,0.002678,0.000431,0.002351
97100,0.0324,0.013523,0.002678,0.000431,0.001175
97200,0.0324,0.013523,0.002678,0.000431,0.001175
97300,0.0324,0.013523,0.002678,0.000431,0.001175
97400,0.0324,0.013523,0.002678,0.000431,0.000000
97500,0.0324,0.013523,0.002678,0.000431,0.000000
97600,0.0324,0.013523,0.002678,0.000431,0.002351
97700,0.0324,0.013523,0.002678,0.000431,0.001175
97800,0.0324,0.013523,0.002678,0.000431,0.002351
97900,0.0324,0.013523,0.002678,0.000431,0.001175
98000,0.0324,0.013523,0.002678,0.000431,0.000000
98100,0.0324,0.013523,0.002678,0.000431,0.002351
98200,0.0324,0.013523,0.002678,0.000431,0.000000
98300,0.0324,0.013523,0.002678,0.000431,0.002351
98400,0.0324,0.013523,0.002678,0.000431,0.001175
98500,0.0324,0.013523,0.002678,0.000431,0.001175
98600,0.0324,0.013523,0.002678,0.000431,0.002351
98700,0.0324,0.013523,0.002678,0.000431,0.001175
98800,0.0324,0.013523,0.002678,0.000431,0.001175
98900,0.0324,0.013523,0.002678,0.000431,0.002351
99000,0.0324,0.013523,0.002678,0.000431,0.000000
99100,0.0324,0.013523,0.002678,0.000431,0.002351
99200,0.0324,0.013523,0.002678,0.000431,0.001175
99300,0.0324,0.013523,0.002678,0.000431,0.001175
99400,0.0324,0.013523,0.002678,0.000431,0.002351
99500,0.0324,0.013523,0.002678,0.000431,0.001175
99600,0.0324,0.013523,0.002678,0.000431,0.000000
99700,0.0324,0.013523,0.002678,0.000431,0.002351
99800,0.0324,0.013523,0.002678,0.000431,0.002351
99900,0.0324,0.013523,0.002678,0.000431,0.000000
100000,0.0324,0.013523,0.002678,0.000431,0.002351
100100,0.0324,0.013523,0.002678,0.000431,0.001175
100200,0.0324,0.013523,0.002678,0.000431,0.001175
100300,0.0324,0.013523,0.002678,0.000431,0.001175
100400,0.0324,0.013523,0.002678,0.000431,0.002351
100500,0.0324,0.013523,0.002678,0.000431,0.001175
100600,0.0324,0.013523,0.002678,0.000431,0.000000
100700,0.0324,0.013523,0.002678,0.000431,0.003526
100800,0.0324,0.013523,0.002678,0.000431,0.001175
100900,0.0324,0.013523,0.002678,0.000431,0.001175
101000,0.0324,0.013523,0.002678,0.000431,0.002351
101100,0.0324,0.013523,0.002678,0.000431,0.000000
101200,0.0324,0.013523,0.002678,0.000431,0.002351
101300,0.0324,0.013523,0.002678,0.000431,0.001175
101400,0.0324,0.013523,0.002678,0.000431,0.001175
101500,0.0324,0.013523,0.002678,0.000431,0.002351
101600,0.0324,0.013523,0.002678,0.000431,0.000000
101700,0.0324,0.013523,0.002678,0.000431,0.002351
101800,0.0324,0.013523,0.002678,0.000431,0.001175
101900,0.0324,0.013523,0.002678,0.000431,0.001175
102000,0.0324,0.013523,0.002678,0.000431,0.001175
102100,0.0324,0.013523,0.002678,0.000431,0.002351
102200,0.0324,0.013523,0.002678,0.000431,0.001175
102300,0.0324,0.013523,0.002678,0.000431,0.001175
102400,0.0324,0.013523,0.002678,0.000431,0.002351
102500,0.0324,0.013523,0.002678,0.000431,0.000000
102600,0.0324,0.013523,0.002678,0.000431,0.002351
102700,0.0324,0.013523,0.002678,0.000431,0.002351
102800,0.0324,0.013523,0.002678,0.000431,0.000000
102900,0.0324,0.013523,0.002678,0.000431,0.003526
103000,0.0324,0.013523,0.002678,0.000431,0.000000
103100,0.0324,0.013523,0.002678,0.000431,0.001175
103200,0.0324,0.013523,0.002678,0.000431,0.001175
103300,0.0324,0.013523,0.002678,0.000431,0.002351
103400,0.0324,0.013523,0.002678,0.000431,0.000000
103500,0.0324,0.013523,0.002678,0.000431,0.002351
103600,0.0324,0.013523,0.002678,0.000431,0.001175
103700,0.0324,0.013523,0.002678,0.000431,0.001175
103800,0.0324,0.013523,0.002678,0.000431,0.002351
103900,0.0324,0.013523,0.002678,0.000431,0.001175
104000,0.0324,0.013523,0.002678,0.000431,0.001175
104100,0.0324,0.013523,0.002678,0.000431,0.002351
104200,0.0324,0.013523,0.002678,0.000431,0.001175
104300,0.0324,0.013523,0.002678,0.000431,0.000000
104400,0.0324,0.013523,0.002678,0.000431,0.002351
104500,0.0324,0.013523,0.002678,0.000431,0.001175
104600,0.0324,0.013523,0.002678,0.000431,0.000000
104700,0.0324,0.013523,0.002678,0.000431,0.001175
104800,0.0324,0.013523,0.002678,0.000431,0.001175
104900,0.0324,0.013523,0.002678,0.000431,0.001175
105000,0.0324,0.013523,0.002678,0.000431,0.001175
105100,0.0324,0.013523,0.002678,0.000431,0.001175
105200,0.0324,0.013523,0.002678,0.000431,0.001175
105300,0.0324,0.013523,0.002678,0.000431,0.001175
105400,0.0324,0.013523,0.002678,0.000431,0.002351
105500,0.0324,0.013523,0.002678,0.000431,0.000000
105600,0.0324,0.013523,0.002678,0.000431,0.002351
105700,0.0324,0.013523,0.002678,0.000431,0.001175
105800,0.0324,0.013523,0.002678,0.000431,0.000000
105900,0.0324,0.013523,0.002678,0.000431,0.001175
106000,0.0324,0.013523,0.002678,0.000431,0.001175
106100,0.0324,0.013523,0.002678,0.000431,0.000000
106200,0.0324,0.013523,0.002678,0.000431,0.002351
106300,0.0324,0.013523,0.002678,0.000431,0.000000
106400,0.0324,0.013523,0.002678,0.000431,0.001175
106500,0.0324,0.013523,0.002678,0.000431,0.001175
106600,0.0324,0.013523,0.002678,0.000431,0.001175
106700,0.0324,0.013523,0.002678,0.000431,0.001175
106800,0.0324,0.013523,0.002678,0.000431,0.001175
106900,0.0324,0.013523,0.002678,0.000431,0.000000
107000,0.0324,0.013523,0.002678,0.000431,0.003526
107100,0.0324,0.013523,0.002678,0.000431,0.000000
107200,0.0324,0.013523,0.002678,0.000431,0.001175
107300,0.0324,0.013523,0.002678,0.000431,0.001175
107400,0.0324,0.013523,0.002678,0.000431,0.000000
107500,0.0324,0.013523,0.002678,0.000431,0.002351
107600,0.0324,0.013523,0.002678,0.000431,0.001175
107700,0.0324,0.013523,0.002678,0.000431,0.000000
107800,0.0324,0.013523,0.002678,0.000431,0.002351
107900,0.0324,0.013523,0.002678,0.000431,0.000000
108000,0.0324,0.013523,0.002678,0.000431,0.000000
108100,0.0324,0.013523,0.002678,0.000431,0.000000
108200,0.0324,0.013523,0.002678,0.000431,0.000000
108300,0.0324,0.013523,0.002678,0.000431,0.001175
108400,0.0324,0.013523,0.002678,0.000431,0.000000
108500,0.0324,0.013523,0.002678,0.000431,0.001175
108600,0.0324,0.013523,0.002678,0.000431,0.001175
108700,0.0324,0.013523,0.002678,0.000431,0.001175
108800,0.0324,0.013523,0.002678,0.000431,0.000000
108900,0.0324,0.013523,0.002678,0.000431,0.001175
109000,0.0324,0.013523,0.002678,0.000431,0.001175
109100,0.0324,0.013523,0.002678,0.000431,0.000000
109200,0.0324,0.013523,0.002678,0.000431,0.001175
109300,0.0324,0.013523,0.002678,0.000431,0.000000
109400,0.0324,0.013523,0.002678,0.000431,0.001175
109500,0.0324,0.013523,0.002678,0.000431,0.000000
109600,0.0324,0.013523,0.002678,0.000431,0.001175
109700,0.0324,0.013523,0.002678,0.000431,0.000000
109800,0.0324,0.013523,0.002678,0.000431,0.001175
109900,0.0324,0.013523,0.002678,0.000431,0.000000
110000,0.0324,0.013523,0.002678,0.000431,0.002351
110100,0.0324,0.013523,0.002678,0.000431,0.000000
110200,0.0324,0.013523,0.002678,0.000431,0.000000
110300,0.0324,0.013523,0.002678,0.000431,0.002351
110400,0.0324,0.013523,0.002678,0.000431,0.000000
110500,0.0324,0.013523,0.002678,0.000431,0.000000
110600,0.0324,0.013523,0.002678,0.000431,0.001175
110700,0.0324,0.013523,0.002678,0.000431,0.000000
110800,0.0324,0.013523,0.002678,0.000431,0.001175
110900,0.0324,0.013523,0.002678,0.000431,0.001175
111000,0.0324,0.013523,0.002678,0.000431,0.000000
111100,0.0324,0.013523,0.002678,0.000431,0.001175
111200,0.0324,0.013523,0.002678,0.000431,0.000000
111300,0.0324,0.013523,0.002678,0.000431,0.001175
111400,0.0324,0.013523,0.002678,0.000431,0.001175
111500,0.0324,0.013523,0.002678,0.000431,0.000000
111600,0.0324,0.013523,0.002678,0.000431,0.001175
111700,0.0324,0.013523,0.002678,0.000431,0.001175
111800,0.0324,0.013523,0.002678,0.000431,0.000000
111900,0.0324,0.013523,0.002678,0.000431,0.001175
112000,0.0324,0.013523,0.002678,0.000431,0.000000
112100,0.0324,0.013523,0.002678,0.000431,0.001175
112200,0.0324,0.013523,0.002678,0.000431,0.001175
112300,0.0324,0.013523,0.002678,0.000431,0.000000
112400,0.0324,0.013523,0.002678,0.000431,0.001175
112500,0.0324,0.013523,0.002678,0.000431,0.001175
112600,0.0324,0.013523,0.002678,0.000431,0.000000
112700,0.0324,0.013523,0.002678,0.000431,0.002351
112800,0.0324,0.013523,0.002678,0.000431,0.001175
112900,0.0324,0.013523,0.002678,0.000431,0.000000
113000,0.0324,0.013523,0.002678,0.000431,0.002351
113100,0.0324,0.013523,0.002678,0.000431,0.001175
113200,0.0324,0.013523,0.002678,0.000431,0.000000
113300,0.0324,0.013523,0.002678,0.000431,0.001175
113400,0.0324,0.013523,0.002678,0.000431,0.002351
113500,0.0324,0.013523,0.002678,0.000431,0.001175
113600,0.0324,0.013523,0.002678,0.000431,0.001175
113700,0.0324,0.013523,0.002678,0.000431,0.001175
113800,0.0324,0.013523,0.002678,0.000431,0.000000
113900,0.0324,0.013523,0.002678,0.000431,0.001175
114000,0.0324,0.013523,0.002678,0.000431,0.002351
114100,0.0324,0.013523,0.002678,0.000431,0.000000
114200,0.0324,0.013523,0.002678,0.000431,0.001175
114300,0.0324,0.013523,0.002678,0.000431,0.000000
114400,0.0324,0.013523,0.002678,0.000431,0.002351
114500,0.0324,0.013523,0.002678,0.000431,0.000000
114600,0.0324,0.013523,0.002678,0.000431,0.001175
114700,0.0324,0.013523,0.002678,0.000431,0.001175
114800,0.0324,0.013523,0.002678,0.000431,0.000000
114900,0.0324,0.013523,0.002678,0.000431,0.001175
115000,0.0324,0.013523,0.002678,0.000431,0.001175
115100,0.0324,0.013523,0.002678,0.000431,0.000000
115200,0.0324,0.013523,0.002678,0.000431,0.002351
115300,0.0324,0.013523,0.002678,0.000431,0.001175
115400,0.0324,0.013523,0.002678,0.000431,0.000000
115500,0.0324,0.013523,0.002678,0.000431,0.002351
115600,0.0324,0.013523,0.002678,0.000431,0.001175
115700,0.0324,0.013523,0.002678,0.000431,0.000000
115800,0.0324,0.013523,0.002678,0.000431,0.000000
115900,0.0324,0.013523,0.002678,0.000431,0.001175
116000,0.0324,0.013523,0.002678,0.000431,0.001175
116100,0.0324,0.013523,0.002678,0.000431,0.000000
116200,0.0324,0.013523,0.002678,0.000431,0.001175
116300,0.0324,0.013523,0.002678,0.000431,0.002351
116400,0.0324,0.013523,0.002678,0.000431,0.000000
116500,0.0324,0.013523,0.002678,0.000431,0.001175
116600,0.0324,0.013523,0.002678,0.000431,0.002351
116700,0.0324,0.013523,0.002678,0.000431,0.000000
116800,0.0324,0.013523,0.002678,0.000431,0.001175
116900,0.0324,0.013523,0.002678,0.000431,0.002351
117000,0.0324,0.013523,0.002678,0.000431,0.000000
117100,0.0324,0.013523,0.002678,0.000431,0.002351
117200,0.0324,0.013523,0.002678,0.000431,0.001175
117300,0.0324,0.013523,0.002678,0.000431,0.000000
117400,0.0324,0.013523,0.002678,0.000431,0.001175
117500,0.0324,0.013523,0.002678,0.000431,0.001175
117600,0.0324,0.013523,0.002678,0.000431,0.000000
117700,0.0324,0.013523,0.002678,0.000431,0.002351
117800,0.0324,0.013523,0.002678,0.000431,0.001175
117900,0.0324,0.013523,0.002678,0.000431,0.000000
118000,0.0324,0.013523,0.002678,0.000431,0.002351
118100,0.0324,0.013523,0.002678,0.000431,0.001175
118200,0.0324,0.013523,0.002678,0.000431,0.001175
118300,0.0324,0.013523,0.002678,0.000431,0.001175
118400,0.0324,0.013523,0.002678,0.000431,0.002351
118500,0.0324,0.013523,0.002678,0.000431,0.000000
118600,0.0324,0.013523,0.002678,0.000431,0.000000
118700,0.0324,0.013523,0.002678,0.000431,0.002351
118800,0.0324,0.013523,0.002678,0.000431,0.000000
118900,0.0324,0.013523,0.002678,0.000431,0.001175
119000,0.0324,0.013523,0.002678,0.000431,0.002351
119100,0.0324,0.013523,0.002678,0.000431,0.000000
119200,0.0324,0.013523,0.002678,0.000431,0.002351
119300,0.0324,0.013523,0.002678,0.000431,0.001175
119400,0.0324,0.013523,0.002678,0.000431,0.000000
119500,0.0324,0.013523,0.002678,0.000431,0.002351
119600,0.0324,0.013523,0.002678,0.000431,0.001175
119700,0.0324,0.013523,0.002678,0.000431,0.001175
119800,0.0324,0.013523,0.002678,0.000431,0.001175
119900,0.0324,0.013523,0.002678,0.000431,0.000000
120000,0.0324,0.013523,0.002678,0.000431,0.001175
120100,0.0324,0.013523,0.002678,0.000431,0.000000
120200,0.0324,0.013523,0.002678,0.000431,0.001175
120300,0.0324,0.013523,0.002678,0.000431,0.001175
120400,0.0324,0.013523,0.002678,0.000431,0.000000
120500,0.0324,0.013523,0.002678,0.000431,0.001175
120600,0.0324,0.013523,0.002678,0.000431,0.001175
120700,0.0324,0.013523,0.002678,0.000431,0.000000
120800,0.0324,0.013523,0.002678,0.000431,0.001175
120900,0.0324,0.013523,0.002678,0.000431,0.001175
121000,0.0324,0.013523,0.002678,0.000431,0.000000
121100,0.0324,0.013523,0.002678,0.000431,0.002351
121200,0.0324,0.013523,0.002678,0.000431,0.000000
121300,0.0324,0.013523,0.002678,0.000431,0.000000
121400,0.0324,0.013523,0.002678,0.000431,0.001175
121500,0.0324,0.013523,0.002678,0.000431,0.001175
121600,0.0324,0.013523,0.002678,0.000431,0.000000
121700,0.0324,0.013523,0.002678,0.000431,0.001175
121800,0.0324,0.013523,0.002678,0.000431,0.001175
121900,0.0324,0.013523,0.002678,0.000431,0.000000
122000,0.0324,0.013523,0.002678,0.000431,0.001175
122100,0.0324,0.013523,0.002678,0.000431,0.001175
122200,0.0324,0.013523,0.002678,0.000431,0.000000
122300,0.0324,0.013523,0.002678,0.000431,0.001175
122400,0.0324,0.013523,0.002678,0.000431,0.001175
122500,0.0324,0.013523,0.002678,0.000431,0.000000
122600,0.0324,0.013523,0.002678,0.000431,0.001175
122700,0.0324,0.013523,0.002678,0.000431,0.001175
122800,0.0324,0.013523,0.002678,0.000431,0.000000
122900,0.0324,0.013523,0.002678,0.000431,0.001175
123000,0.0324,0.013523,0.002678,0.000431,0.001175
123100,0.0324,0.013523,0.002678,0.000431,0.000000
123200,0.0324,0.013523,0.002678,0.000431,0.001175
123300,0.0324,0.013523,0.002678,0.000431,0.001175
123400,0.0324,0.013523,0.002678,0.000431,0.000000
123500,0.0324,0.013523,0.002678,0.000431,0.001175
123600,0.0324,0.013523,0.002678,0.000431,0.001175
123700,0.0324,0.013523,0.002678,0.000431,0.000000
123800,0.0324,0.013523,0.002678,0.000431,0.001175
123900,0.0324,0.013523,0.002678,0.000431,0.001175
124000,0.0324,0.013523,0.002678,0.000431,0.000000
124100,0.0324,0.013523,0.002678,0.000431,0.000000
124200,0.0324,0.013523,0.002678,0.000431,0.002351
124300,0.0324,0.013523,0.002678,0.000431,0.000000
124400,0.0324,0.013523,0.002678,0.000431,0.001175
124500,0.0324,0.013523,0.002678,0.000431,0.001175
124600,0.0324,0.013523,0.002678,0.000431,0.000000
124700,0.0324,0.013523,0.002678,0.000431,0.001175
124800,0.0324,0.013523,0.002678,0.000431,0.001175
124900,0.0324,0.013523,0.002678,0.000431,0.000000
125000,0.0324,0.013523,0.002678,0.000431,0.001175
125100,0.0324,0.013523,0.002678,0.000431,0.001175
125200,0.0324,0.013523,0.002678,0.000431,0.000000
125300,0.0324,0.013523,0.002678,0.000431,0.001175
125400,0.0324,0.013523,0.002678,0.000431,0.000000
125500,0.0324,0.013523,0.002678,0.000431,0.001175
125600,0.0324,0.013523,0.002678,0.000431,0.000000
125700,0.0324,0.013523,0.002678,0.000431,0.001175
125800,0.0324,0.013523,0.002678,0.000431,0.001175
125900,0.0324,0.013523,0.002678,0.000431,0.000000
126000,0.0324,0.013523,0.002678,0.000431,0.001175
126100,0.0324,0.013523,0.002678,0.000431,0.001175
126200,0.0324,0.013523,0.002678,0.000431,0.000000
126300,0.0324,0.013523,0.002678,0.000431,0.001175
126400,0.0324,0.013523,0.002678,0.000431,0.001175
126500,0.0324,0.013523,0.002678,0.000431,0.000000
126600,0.0324,0.013523,0.002678,0.000431,0.002351
126700,0.0324,0.013523,0.002678,0.000431,0.000000
126800,0.0324,0.013523,0.002678,0.000431,0.000000
126900,0.0324,0.013523,0.002678,0.000431,0.001175
127000,0.0324,0.013523,0.002678,0.000431,0.001175
127100,0.0324,0.013523,0.002678,0.000431,0.000000
127200,0.0324,0.013523,0.002678,0.000431,0.001175
127300,0.0324,0.013523,0.002678,0.000431,0.001175
127400,0.0324,0.013523,0.002678,0.000431,0.000000
127500,0.0324,0.013523,0.002678,0.000431,0.001175
127600,0.0324,0.013523,0.002678,0.000431,0.001175
127700,0.0324,0.013523,0.002678,0.000431,0.000000
127800,0.0324,0.013523,0.002678,0.000431,0.001175
127900,0.0324,0.013523,0.002678,0.000431,0.001175
128000,0.0324,0.013523,0.002678,0.000431,0.000000
128100,0.0324,0.013523,0.002678,0.000431,0.001175
128200,0.0324,0.013523,0.002678,0.000431,0.001175
128300,0.0324,0.013523,0.002678,0.000431,0.000000
128400,0.0324,0.013523,0.002678,0.000431,0.001175
128500,0.0324,0.013523,0.002678,0.000431,0.001175
128600,0.0324,0.013523,0.002678,0.000431,0.000000
128700,0.0324,0.013523,0.002678,0.000431,0.001175
128800,0.0324,0.013523,0.002678,0.000431,0.001175
128900,0.0324,0.013523,0.002678,0.000431,0.000000
129000,0.0324,0.013523,0.002678,0.000431,0.001175
129100,0.0324,0.013523,0.002678,0.000431,0.001175
129200,0.0324,0.013523,0.002678,0.000431,0.000000
129300,0.0324,0.013523,0.002678,0.000431,0.001175
129400,0.0324,0.013523,0.002678,0.000431,0.001175
129500,0.0324,0.013523,0.002678,0.000431,0.000000
129600,0.0324,0.013523,0.002678,0.000431,0.000000
129700,0.0324,0.013523,0.002678,0.000431,0.001175
129800,0.0324,0.013523,0.002678,0.000431,0.001175
129900,0.0324,0.013523,0.002678,0.000431,0.000000
130000,0.0324,0.013523,0.002678,0.000431,0.001175
130100,0.0324,0.013523,0.002678,0.000431,0.001175
130200,0.0324,0.013523,0.002678,0.000431,0.000000
130300,0.0324,0.013523,0.002678,0.000431,0.001175
130400,0.0324,0.013523,0.002678,0.000431,0.001175
130500,0.0324,0.013523,0.002678,0.000431,0.000000
130600,0.0324,0.013523,0.002678,0.000431,0.001175
130700,0.0324,0.013523,0.002678,0.000431,0.001175
130800,0.0324,0.013523,0.002678,0.000431,0.000000
130900,0.0324,0.013523,0.002678,0.000431,0.001175
131000,0.0324,0.013523,0.002678,0.000431,0.001175
131100,0.0324,0.013523,0.002678,0.000431,0.000000
131200,0.0324,0.013523,0.002678,0.000431,0.001175
131300,0.0324,0.013523,0.002678,0.000431,0.001175
131400,0.0324,0.013523,0.002678,0.000431,0.000000
131500,0.0324,0.013523,0.002678,0.000431,0.001175
131600,0.0324,0.013523,0.002678,0.000431,0.001175
131700,0.0324,0.013523,0.002678,0.000431,0.000000
131800,0.0324,0.013523,0.002678,0.000431,0.001175
131900,0.0324,0.013523,0.002678,0.000431,0.001175
132000,0.0324,0.013523,0.002678,0.000431,0.000000
132100,0.0324,0.013523,0.002678,0.000431,0.001175
132200,0.0324,0.013523,0.002678,0.000431,0.001175
132300,0.0324,0.013523,0.002678,0.000431,0.000000
132400,0.0324,0.013523,0.002678,0.000431,0.000000
132500,0.0324,0.013523,0.002678,0.000431,0.002351
132600,0.0324,0.013523,0.002678,0.000431,0.000000
132700,0.0324,0.013523,0.002678,0.000431,0.001175
132800,0.0324,0.013523,0.002678,0.000431,0.001175
132900,0.0324,0.013523,0.002678,0.000431,0.000000
133000,0.0324,0.013523,0.002678,0.000431,0.001175
133100,0.0324,0.013523,0.002678,0.000431,0.001175
133200,0.0324,0.013523,0.002678,0.000431,0.000000
133300,0.0324,0.013523,0.002678,0.000431,0.001175
133400,0.0324,0.013523,0.002678,0.000431,0.001175
133500,0.0324,0.013523,0.002678,0.000431,0.000000
133600,0.0324,0.013523,0.002678,0.000431,0.001175
133700,0.0324,0.013523,0.002678,0.000431,0.001175
133800,0.0324,0.013523,0.002678,0.000431,0.000000
133900,0.0324,0.013523,0.002678,0.000431,0.001175
134000,0.0324,0.013523,0.002678,0.000431,0.001175
134100,0.0324,0.013523,0.002678,0.000431,0.000000
134200,0.0324,0.013523,0.002678,0.000431,0.001175
134300,0.0324,0.013523,0.002678,0.000431,0.000000
134400,0.0324,0.013523,0.002678,0.000431,0.000000
134500,0.0324,0.013523,0.002678,0.000431,0.001175
134600,0.0324,0.013523,0.002678,0.000431,0.000000
134700,0.0324,0.013523,0.002678,0.000431,0.000000
134800,0.0324,0.013523,0.002678,0.000431,0.001175
134900,0.0324,0.013523,0.002678,0.000431,0.000000
135000,0.0324,0.013523,0.002678,0.000431,0.000000
135100,0.0324,0.013523,0.002678,0.000431,0.000000
135200,0.0324,0.013523,0.002678,0.000431,0.001175
135300,0.0324,0.013523,0.002678,0.000431,0.000000
135400,0.0324,0.013523,0.002678,0.000431,0.001175
135500,0.0324,0.013523,0.002678,0.000431,0.000000
135600,0.0324,0.013523,0.002678,0.000431,0.000000
135700,0.0324,0.013523,0.002678,0.000431,0.000000
135800,0.0324,0.013523,0.002678,0.000431,0.001175
135900,0.0324,0.013523,0.002678,0.000431,0.000000
136000,0.0324,0.013523,0.002678,0.000431,0.000000
136100,0.0324,0.013523,0.002678,0.000431,0.000000
136200,0.0324,0.013523,0.002678,0.000431,0.001175
136300,0.0324,0.013523,0.002678,0.000431,0.000000
136400,0.0324,0.013523,0.002678,0.000431,0.000000
136500,0.0324,0.013523,0.002678,0.000431,0.001175
136600,0.0324,0.013523,0.002678,0.000431,0.000000
136700,0.0324,0.013523,0.002678,0.000431,0.001175
136800,0.0324,0.013523,0.002678,0.000431,0.000000
136900,0.0324,0.013523,0.002678,0.000431,0.000000
137000,0.0324,0.013523,0.002678,0.000431,0.000000
137100,0.0324,0.013523,0.002678,0.000431,0.000000
137200,0.0324,0.013523,0.002678,0.000431,0.001175
137300,0.0324,0.013523,0.002678,0.000431,0.000000
137400,0.0324,0.013523,0.002678,0.000431,0.000000
137500,0.0324,0.013523,0.002678,0.000431,0.001175
137600,0.0324,0.013523,0.002678,0.000431,0.000000
137700,0.0324,0.013523,0.002678,0.000431,0.000000
137800,0.0324,0.013523,0.002678,0.000431,0.001175
137900,0.0324,0.013523,0.002678,0.000431,0.000000
138000,0.0324,0.013523,0.002678,0.000431,0.001175
138100,0.0324,0.013523,0.002678,0.000431,0.000000
138200,0.0324,0.013523,0.002678,0.000431,0.000000
138300,0.0324,0.013523,0.002678,0.000431,0.000000
138400,0.0324,0.013523,0.002678,0.000431,0.000000
138500,0.0324,0.013523,0.002678,0.000431,0.001175
138600,0.0324,0.013523,0.002678,0.000431,0.000000
138700,0.0324,0.013523,0.002678,0.000431,0.000000
138800,0.0324,0.013523,0.002678,0.000431,0.001175
138900,0.0324,0.013523,0.002678,0.000431,0.000000
139000,0.0324,0.013523,0.002678,0.000431,0.000000
139100,0.0324,0.013523,0.002678,0.000431,0.000000
139200,0.0324,0.013523,0.002678,0.000431,0.001175
139300,0.0324,0.013523,0.002678,0.000431,0.000000
139400,0.0324,0.013523,0.002678,0.000431,0.001175
139500,0.0324,0.013523,0.002678,0.000431,0.000000
139600,0.0324,0.013523,0.002678,0.000431,0.000000
139700,0.0324,0.013523,0.002678,0.000431,0.000000
139800,0.0324,0.013523,0.002678,0.000431,0.000000
139900,0.0324,0.013523,0.002678,0.000431,0.001175
140000,0.0324,0.013523,0.002678,0.000431,0.000000
140100,0.0324,0.013523,0.002678,0.000431,0.001175
140200,0.0324,0.013523,0.002678,0.000431,0.000000
140300,0.0324,0.013523,0.002678,0.000431,0.000000
140400,0.0324,0.013523,0.002678,0.000431,0.001175
140500,0.0324,0.013523,0.002678,0.000431,0.000000
