Cycle,Area(mm^2),PeakDynamic(W),SubthresholdLeakage(W),GateLeakage(W),RunTimeDynamic(W)
100,0.0324,0.013523,0.002678,0.000431,0.001175
200,0.0324,0.013523,0.002678,0.000431,0.000000
300,0.0324,0.013523,0.002678,0.000431,0.000000
400,0.0324,0.013523,0.002678,0.000431,0.000000
500,0.0324,0.013523,0.002678,0.000431,0.000000
600,0.0324,0.013523,0.002678,0.000431,0.000000
700,0.0324,0.013523,0.002678,0.000431,0.000000
800,0.0324,0.013523,0.002678,0.000431,0.000000
900,0.0324,0.013523,0.002678,0.000431,0.000000
1000,0.0324,0.013523,0.002678,0.000431,0.000000
1100,0.0324,0.013523,0.002678,0.000431,0.000000
1200,0.0324,0.013523,0.002678,0.000431,0.000000
1300,0.0324,0.013523,0.002678,0.000431,0.000000
1400,0.0324,0.013523,0.002678,0.000431,0.000000
1500,0.0324,0.013523,0.002678,0.000431,0.000000
1600,0.0324,0.013523,0.002678,0.000431,0.000000
1700,0.0324,0.013523,0.002678,0.000431,0.000000
1800,0.0324,0.013523,0.002678,0.000431,0.000000
1900,0.0324,0.013523,0.002678,0.000431,0.000000
2000,0.0324,0.013523,0.002678,0.000431,0.000000
2100,0.0324,0.013523,0.002678,0.000431,0.000000
2200,0.0324,0.013523,0.002678,0.000431,0.000000
2300,0.0324,0.013523,0.002678,0.000431,0.000000
2400,0.0324,0.013523,0.002678,0.000431,0.000000
2500,0.0324,0.013523,0.002678,0.000431,0.000000
2600,0.0324,0.013523,0.002678,0.000431,0.000000
2700,0.0324,0.013523,0.002678,0.000431,0.000000
2800,0.0324,0.013523,0.002678,0.000431,0.000000
2900,0.0324,0.013523,0.002678,0.000431,0.000000
3000,0.0324,0.013523,0.002678,0.000431,0.000000
3100,0.0324,0.013523,0.002678,0.000431,0.000000
3200,0.0324,0.013523,0.002678,0.000431,0.000000
3300,0.0324,0.013523,0.002678,0.000431,0.000000
3400,0.0324,0.013523,0.002678,0.000431,0.000000
3500,0.0324,0.013523,0.002678,0.000431,0.000000
3600,0.0324,0.013523,0.002678,0.000431,0.000000
3700,0.0324,0.013523,0.002678,0.000431,0.000000
3800,0.0324,0.013523,0.002678,0.000431,0.000000
3900,0.0324,0.013523,0.002678,0.000431,0.000000
4000,0.0324,0.013523,0.002678,0.000431,0.000000
4100,0.0324,0.013523,0.002678,0.000431,0.000000
4200,0.0324,0.013523,0.002678,0.000431,0.000000
4300,0.0324,0.013523,0.002678,0.000431,0.000000
4400,0.0324,0.013523,0.002678,0.000431,0.000000
4500,0.0324,0.013523,0.002678,0.000431,0.000000
4600,0.0324,0.013523,0.002678,0.000431,0.000000
4700,0.0324,0.013523,0.002678,0.000431,0.000000
4800,0.0324,0.013523,0.002678,0.000431,0.000000
4900,0.0324,0.013523,0.002678,0.000431,0.000000
5000,0.0324,0.013523,0.002678,0.000431,0.000000
5100,0.0324,0.013523,0.002678,0.000431,0.000000
5200,0.0324,0.013523,0.002678,0.000431,0.001175
5300,0.0324,0.013523,0.002678,0.000431,0.000000
5400,0.0324,0.013523,0.002678,0.000431,0.002351
5500,0.0324,0.013523,0.002678,0.000431,0.000000
5600,0.0324,0.013523,0.002678,0.000431,0.000000
5700,0.0324,0.013523,0.002678,0.000431,0.001175
5800,0.0324,0.013523,0.002678,0.000431,0.001175
5900,0.0324,0.013523,0.002678,0.000431,0.000000
6000,0.0324,0.013523,0.002678,0.000431,0.000000
6100,0.0324,0.013523,0.002678,0.000431,0.001175
6200,0.0324,0.013523,0.002678,0.000431,0.001175
6300,0.0324,0.013523,0.002678,0.000431,0.000000
6400,0.0324,0.013523,0.002678,0.000431,0.000000
6500,0.0324,0.013523,0.002678,0.000431,0.001175
6600,0.0324,0.013523,0.002678,0.000431,0.001175
6700,0.0324,0.013523,0.002678,0.000431,0.000000
6800,0.0324,0.013523,0.002678,0.000431,0.002351
6900,0.0324,0.013523,0.002678,0.000431,0.000000
7000,0.0324,0.013523,0.002678,0.000431,0.001175
7100,0.0324,0.013523,0.002678,0.000431,0.001175
7200,0.0324,0.013523,0.002678,0.000431,0.000000
7300,0.0324,0.013523,0.002678,0.000431,0.002351
7400,0.0324,0.013523,0.002678,0.000431,0.000000
7500,0.0324,0.013523,0.002678,0.000431,0.001175
7600,0.0324,0.013523,0.002678,0.000431,0.001175
7700,0.0324,0.013523,0.002678,0.000431,0.001175
7800,0.0324,0.013523,0.002678,0.000431,0.001175
7900,0.0324,0.013523,0.002678,0.000431,0.002351
8000,0.0324,0.013523,0.002678,0.000431,0.000000
8100,0.0324,0.013523,0.002678,0.000431,0.001175
8200,0.0324,0.013523,0.002678,0.000431,0.001175
8300,0.0324,0.013523,0.002678,0.000431,0.000000
8400,0.0324,0.013523,0.002678,0.000431,0.002351
8500,0.0324,0.013523,0.002678,0.000431,0.001175
8600,0.0324,0.013523,0.002678,0.000431,0.001175
8700,0.0324,0.013523,0.002678,0.000431,0.000000
8800,0.0324,0.013523,0.002678,0.000431,0.001175
8900,0.0324,0.013523,0.002678,0.000431,0.001175
9000,0.0324,0.013523,0.002678,0.000431,0.001175
9100,0.0324,0.013523,0.002678,0.000431,0.001175
9200,0.0324,0.013523,0.002678,0.000431,0.001175
9300,0.0324,0.013523,0.002678,0.000431,0.001175
9400,0.0324,0.013523,0.002678,0.000431,0.000000
9500,0.0324,0.013523,0.002678,0.000431,0.001175
9600,0.0324,0.013523,0.002678,0.000431,0.001175
9700,0.0324,0.013523,0.002678,0.000431,0.002351
9800,0.0324,0.013523,0.002678,0.000431,0.000000
9900,0.0324,0.013523,0.002678,0.000431,0.002351
10000,0.0324,0.013523,0.002678,0.000431,0.000000
10100,0.0324,0.013523,0.002678,0.000431,0.001175
10200,0.0324,0.013523,0.002678,0.000431,0.001175
10300,0.0324,0.013523,0.002678,0.000431,0.001175
10400,0.0324,0.013523,0.002678,0.000431,0.001175
10500,0.0324,0.013523,0.002678,0.000431,0.002351
10600,0.0324,0.013523,0.002678,0.000431,0.000000
10700,0.0324,0.013523,0.002678,0.000431,0.001175
10800,0.0324,0.013523,0.002678,0.000431,0.001175
10900,0.0324,0.013523,0.002678,0.000431,0.001175
11000,0.0324,0.013523,0.002678,0.000431,0.001175
11100,0.0324,0.013523,0.002678,0.000431,0.002351
11200,0.0324,0.013523,0.002678,0.000431,0.000000
11300,0.0324,0.013523,0.002678,0.000431,0.001175
11400,0.0324,0.013523,0.002678,0.000431,0.001175
11500,0.0324,0.013523,0.002678,0.000431,0.001175
11600,0.0324,0.013523,0.002678,0.000431,0.001175
11700,0.0324,0.013523,0.002678,0.000431,0.001175
11800,0.0324,0.013523,0.002678,0.000431,0.001175
11900,0.0324,0.013523,0.002678,0.000431,0.000000
12000,0.0324,0.013523,0.002678,0.000431,0.002351
12100,0.0324,0.013523,0.002678,0.000431,0.000000
12200,0.0324,0.013523,0.002678,0.000431,0.001175
12300,0.0324,0.013523,0.002678,0.000431,0.002351
12400,0.0324,0.013523,0.002678,0.000431,0.000000
12500,0.0324,0.013523,0.002678,0.000431,0.001175
12600,0.0324,0.013523,0.002678,0.000431,0.001175
12700,0.0324,0.013523,0.002678,0.000431,0.001175
12800,0.0324,0.013523,0.002678,0.000431,0.000000
12900,0.0324,0.013523,0.002678,0.000431,0.002351
13000,0.0324,0.013523,0.002678,0.000431,0.000000
13100,0.0324,0.013523,0.002678,0.000431,0.001175
13200,0.0324,0.013523,0.002678,0.000431,0.001175
13300,0.0324,0.013523,0.002678,0.000431,0.001175
13400,0.0324,0.013523,0.002678,0.000431,0.001175
13500,0.0324,0.013523,0.002678,0.000431,0.001175
13600,0.0324,0.013523,0.002678,0.000431,0.001175
13700,0.0324,0.013523,0.002678,0.000431,0.000000
13800,0.0324,0.013523,0.002678,0.000431,0.001175
13900,0.0324,0.013523,0.002678,0.000431,0.001175
14000,0.0324,0.013523,0.002678,0.000431,0.001175
14100,0.0324,0.013523,0.002678,0.000431,0.001175
14200,0.0324,0.013523,0.002678,0.000431,0.002351
14300,0.0324,0.013523,0.002678,0.000431,0.000000
14400,0.0324,0.013523,0.002678,0.000431,0.001175
14500,0.0324,0.013523,0.002678,0.000431,0.001175
14600,0.0324,0.013523,0.002678,0.000431,0.001175
14700,0.0324,0.013523,0.002678,0.000431,0.001175
14800,0.0324,0.013523,0.002678,0.000431,0.002351
14900,0.0324,0.013523,0.002678,0.000431,0.000000
15000,0.0324,0.013523,0.002678,0.000431,0.001175
15100,0.0324,0.013523,0.002678,0.000431,0.001175
15200,0.0324,0.013523,0.002678,0.000431,0.000000
15300,0.0324,0.013523,0.002678,0.000431,0.002351
15400,0.0324,0.013523,0.002678,0.000431,0.000000
15500,0.0324,0.013523,0.002678,0.000431,0.002351
15600,0.0324,0.013523,0.002678,0.000431,0.000000
15700,0.0324,0.013523,0.002678,0.000431,0.001175
15800,0.0324,0.013523,0.002678,0.000431,0.001175
15900,0.0324,0.013523,0.002678,0.000431,0.001175
16000,0.0324,0.013523,0.002678,0.000431,0.001175
16100,0.0324,0.013523,0.002678,0.000431,0.002351
16200,0.0324,0.013523,0.002678,0.000431,0.000000
16300,0.0324,0.013523,0.002678,0.000431,0.001175
16400,0.0324,0.013523,0.002678,0.000431,0.001175
16500,0.0324,0.013523,0.002678,0.000431,0.001175
16600,0.0324,0.013523,0.002678,0.000431,0.001175
16700,0.0324,0.013523,0.002678,0.000431,0.002351
16800,0.0324,0.013523,0.002678,0.000431,0.000000
16900,0.0324,0.013523,0.002678,0.000431,0.001175
17000,0.0324,0.013523,0.002678,0.000431,0.001175
17100,0.0324,0.013523,0.002678,0.000431,0.001175
17200,0.0324,0.013523,0.002678,0.000431,0.001175
17300,0.0324,0.013523,0.002678,0.000431,0.001175
17400,0.0324,0.013523,0.002678,0.000431,0.001175
17500,0.0324,0.013523,0.002678,0.000431,0.000000
17600,0.0324,0.013523,0.002678,0.000431,0.002351
17700,0.0324,0.013523,0.002678,0.000431,0.000000
17800,0.0324,0.013523,0.002678,0.000431,0.001175
17900,0.0324,0.013523,0.002678,0.000431,0.002351
18000,0.0324,0.013523,0.002678,0.000431,0.000000
18100,0.0324,0.013523,0.002678,0.000431,0.001175
18200,0.0324,0.013523,0.002678,0.000431,0.001175
18300,0.0324,0.013523,0.002678,0.000431,0.001175
18400,0.0324,0.013523,0.002678,0.000431,0.000000
18500,0.0324,0.013523,0.002678,0.000431,0.002351
18600,0.0324,0.013523,0.002678,0.000431,0.000000
18700,0.0324,0.013523,0.002678,0.000431,0.001175
18800,0.0324,0.013523,0.002678,0.000431,0.001175
18900,0.0324,0.013523,0.002678,0.000431,0.001175
19000,0.0324,0.013523,0.002678,0.000431,0.001175
19100,0.0324,0.013523,0.002678,0.000431,0.002351
19200,0.0324,0.013523,0.002678,0.000431,0.000000
19300,0.0324,0.013523,0.002678,0.000431,0.001175
19400,0.0324,0.013523,0.002678,0.000431,0.001175
19500,0.0324,0.013523,0.002678,0.000431,0.000000
19600,0.0324,0.013523,0.002678,0.000431,0.002351
19700,0.0324,0.013523,0.002678,0.000431,0.000000
19800,0.0324,0.013523,0.002678,0.000431,0.002351
19900,0.0324,0.013523,0.002678,0.000431,0.000000
20000,0.0324,0.013523,0.002678,0.000431,0.001175
20100,0.0324,0.013523,0.002678,0.000431,0.001175
20200,0.0324,0.013523,0.002678,0.000431,0.001175
20300,0.0324,0.013523,0.002678,0.000431,0.001175
20400,0.0324,0.013523,0.002678,0.000431,0.002351
20500,0.0324,0.013523,0.002678,0.000431,0.000000
20600,0.0324,0.013523,0.002678,0.000431,0.001175
20700,0.0324,0.013523,0.002678,0.000431,0.001175
20800,0.0324,0.013523,0.002678,0.000431,0.001175
20900,0.0324,0.013523,0.002678,0.000431,0.001175
21000,0.0324,0.013523,0.002678,0.000431,0.001175
21100,0.0324,0.013523,0.002678,0.000431,0.001175
21200,0.0324,0.013523,0.002678,0.000431,0.001175
21300,0.0324,0.013523,0.002678,0.000431,0.001175
21400,0.0324,0.013523,0.002678,0.000431,0.000000
21500,0.0324,0.013523,0.002678,0.000431,0.002351
21600,0.0324,0.013523,0.002678,0.000431,0.000000
21700,0.0324,0.013523,0.002678,0.000431,0.002351
21800,0.0324,0.013523,0.002678,0.000431,0.000000
21900,0.0324,0.013523,0.002678,0.000431,0.001175
22000,0.0324,0.013523,0.002678,0.000431,0.001175
22100,0.0324,0.013523,0.002678,0.000431,0.001175
22200,0.0324,0.013523,0.002678,0.000431,0.001175
22300,0.0324,0.013523,0.002678,0.000431,0.002351
22400,0.0324,0.013523,0.002678,0.000431,0.000000
22500,0.0324,0.013523,0.002678,0.000431,0.001175
22600,0.0324,0.013523,0.002678,0.000431,0.001175
22700,0.0324,0.013523,0.002678,0.000431,0.001175
22800,0.0324,0.013523,0.002678,0.000431,0.001175
22900,0.0324,0.013523,0.002678,0.000431,0.002351
23000,0.0324,0.013523,0.002678,0.000431,0.000000
23100,0.0324,0.013523,0.002678,0.000431,0.001175
23200,0.0324,0.013523,0.002678,0.000431,0.001175
23300,0.0324,0.013523,0.002678,0.000431,0.000000
23400,0.0324,0.013523,0.002678,0.000431,0.001175
23500,0.0324,0.013523,0.002678,0.000431,0.002351
23600,0.0324,0.013523,0.002678,0.000431,0.000000
23700,0.0324,0.013523,0.002678,0.000431,0.001175
23800,0.0324,0.013523,0.002678,0.000431,0.001175
23900,0.0324,0.013523,0.002678,0.000431,0.001175
24000,0.0324,0.013523,0.002678,0.000431,0.000000
24100,0.0324,0.013523,0.002678,0.000431,0.002351
24200,0.0324,0.013523,0.002678,0.000431,0.000000
24300,0.0324,0.013523,0.002678,0.000431,0.001175
24400,0.0324,0.013523,0.002678,0.000431,0.001175
24500,0.0324,0.013523,0.002678,0.000431,0.001175
24600,0.0324,0.013523,0.002678,0.000431,0.001175
24700,0.0324,0.013523,0.002678,0.000431,0.002351
24800,0.0324,0.013523,0.002678,0.000431,0.000000
24900,0.0324,0.013523,0.002678,0.000431,0.001175
25000,0.0324,0.013523,0.002678,0.000431,0.001175
25100,0.0324,0.013523,0.002678,0.000431,0.001175
25200,0.0324,0.013523,0.002678,0.000431,0.001175
25300,0.0324,0.013523,0.002678,0.000431,0.001175
25400,0.0324,0.013523,0.002678,0.000431,0.001175
25500,0.0324,0.013523,0.002678,0.000431,0.000000
25600,0.0324,0.013523,0.002678,0.000431,0.001175
25700,0.0324,0.013523,0.002678,0.000431,0.001175
25800,0.0324,0.013523,0.002678,0.000431,0.001175
25900,0.0324,0.013523,0.002678,0.000431,0.001175
26000,0.0324,0.013523,0.002678,0.000431,0.002351
26100,0.0324,0.013523,0.002678,0.000431,0.000000
26200,0.0324,0.013523,0.002678,0.000431,0.001175
26300,0.0324,0.013523,0.002678,0.000431,0.001175
26400,0.0324,0.013523,0.002678,0.000431,0.001175
26500,0.0324,0.013523,0.002678,0.000431,0.001175
26600,0.0324,0.013523,0.002678,0.000431,0.002351
26700,0.0324,0.013523,0.002678,0.000431,0.000000
26800,0.0324,0.013523,0.002678,0.000431,0.001175
26900,0.0324,0.013523,0.002678,0.000431,0.001175
27000,0.0324,0.013523,0.002678,0.000431,0.000000
27100,0.0324,0.013523,0.002678,0.000431,0.002351
27200,0.0324,0.013523,0.002678,0.000431,0.000000
27300,0.0324,0.013523,0.002678,0.000431,0.002351
27400,0.0324,0.013523,0.002678,0.000431,0.000000
27500,0.0324,0.013523,0.002678,0.000431,0.001175
27600,0.0324,0.013523,0.002678,0.000431,0.001175
27700,0.0324,0.013523,0.002678,0.000431,0.001175
27800,0.0324,0.013523,0.002678,0.000431,0.001175
27900,0.0324,0.013523,0.002678,0.000431,0.002351
28000,0.0324,0.013523,0.002678,0.000431,0.000000
28100,0.0324,0.013523,0.002678,0.000431,0.001175
28200,0.0324,0.013523,0.002678,0.000431,0.001175
28300,0.0324,0.013523,0.002678,0.000431,0.001175
28400,0.0324,0.013523,0.002678,0.000431,0.001175
28500,0.0324,0.013523,0.002678,0.000431,0.002351
28600,0.0324,0.013523,0.002678,0.000431,0.000000
28700,0.0324,0.013523,0.002678,0.000431,0.002351
28800,0.0324,0.013523,0.002678,0.000431,0.000000
28900,0.0324,0.013523,0.002678,0.000431,0.001175
29000,0.0324,0.013523,0.002678,0.000431,0.001175
29100,0.0324,0.013523,0.002678,0.000431,0.001175
29200,0.0324,0.013523,0.002678,0.000431,0.001175
29300,0.0324,0.013523,0.002678,0.000431,0.000000
29400,0.0324,0.013523,0.002678,0.000431,0.001175
29500,0.0324,0.013523,0.002678,0.000431,0.001175
29600,0.0324,0.013523,0.002678,0.000431,0.000000
29700,0.0324,0.013523,0.002678,0.000431,0.002351
29800,0.0324,0.013523,0.002678,0.000431,0.000000
29900,0.0324,0.013523,0.002678,0.000431,0.001175
30000,0.0324,0.013523,0.002678,0.000431,0.001175
30100,0.0324,0.013523,0.002678,0.000431,0.001175
30200,0.0324,0.013523,0.002678,0.000431,0.001175
30300,0.0324,0.013523,0.002678,0.000431,0.002351
30400,0.0324,0.013523,0.002678,0.000431,0.000000
30500,0.0324,0.013523,0.002678,0.000431,0.001175
30600,0.0324,0.013523,0.002678,0.000431,0.001175
30700,0.0324,0.013523,0.002678,0.000431,0.001175
30800,0.0324,0.013523,0.002678,0.000431,0.001175
30900,0.0324,0.013523,0.002678,0.000431,0.001175
31000,0.0324,0.013523,0.002678,0.000431,0.001175
31100,0.0324,0.013523,0.002678,0.000431,0.000000
31200,0.0324,0.013523,0.002678,0.000431,0.001175
31300,0.0324,0.013523,0.002678,0.000431,0.001175
31400,0.0324,0.013523,0.002678,0.000431,0.001175
31500,0.0324,0.013523,0.002678,0.000431,0.001175
31600,0.0324,0.013523,0.002678,0.000431,0.002351
31700,0.0324,0.013523,0.002678,0.000431,0.000000
31800,0.0324,0.013523,0.002678,0.000431,0.001175
31900,0.0324,0.013523,0.002678,0.000431,0.001175
32000,0.0324,0.013523,0.002678,0.000431,0.001175
32100,0.0324,0.013523,0.002678,0.000431,0.001175
32200,0.0324,0.013523,0.002678,0.000431,0.002351
32300,0.0324,0.013523,0.002678,0.000431,0.000000
32400,0.0324,0.013523,0.002678,0.000431,0.001175
32500,0.0324,0.013523,0.002678,0.000431,0.001175
32600,0.0324,0.013523,0.002678,0.000431,0.001175
32700,0.0324,0.013523,0.002678,0.000431,0.001175
32800,0.0324,0.013523,0.002678,0.000431,0.001175
32900,0.0324,0.013523,0.002678,0.000431,0.001175
33000,0.0324,0.013523,0.002678,0.000431,0.000000
33100,0.0324,0.013523,0.002678,0.000431,0.001175
33200,0.0324,0.013523,0.002678,0.000431,0.001175
33300,0.0324,0.013523,0.002678,0.000431,0.001175
33400,0.0324,0.013523,0.002678,0.000431,0.001175
33500,0.0324,0.013523,0.002678,0.000431,0.002351
33600,0.0324,0.013523,0.002678,0.000431,0.000000
33700,0.0324,0.013523,0.002678,0.000431,0.001175
33800,0.0324,0.013523,0.002678,0.000431,0.001175
33900,0.0324,0.013523,0.002678,0.000431,0.001175
34000,0.0324,0.013523,0.002678,0.000431,0.001175
34100,0.0324,0.013523,0.002678,0.000431,0.002351
34200,0.0324,0.013523,0.002678,0.000431,0.000000
34300,0.0324,0.013523,0.002678,0.000431,0.002351
34400,0.0324,0.013523,0.002678,0.000431,0.000000
34500,0.0324,0.013523,0.002678,0.000431,0.001175
34600,0.0324,0.013523,0.002678,0.000431,0.002351
34700,0.0324,0.013523,0.002678,0.000431,0.000000
34800,0.0324,0.013523,0.002678,0.000431,0.001175
34900,0.0324,0.013523,0.002678,0.000431,0.000000
35000,0.0324,0.013523,0.002678,0.000431,0.001175
35100,0.0324,0.013523,0.002678,0.000431,0.001175
35200,0.0324,0.013523,0.002678,0.000431,0.000000
35300,0.0324,0.013523,0.002678,0.000431,0.002351
35400,0.0324,0.013523,0.002678,0.000431,0.000000
35500,0.0324,0.013523,0.002678,0.000431,0.001175
35600,0.0324,0.013523,0.002678,0.000431,0.001175
35700,0.0324,0.013523,0.002678,0.000431,0.001175
35800,0.0324,0.013523,0.002678,0.000431,0.001175
35900,0.0324,0.013523,0.002678,0.000431,0.002351
36000,0.0324,0.013523,0.002678,0.000431,0.000000
36100,0.0324,0.013523,0.002678,0.000431,0.001175
36200,0.0324,0.013523,0.002678,0.000431,0.001175
36300,0.0324,0.013523,0.002678,0.000431,0.001175
36400,0.0324,0.013523,0.002678,0.000431,0.001175
36500,0.0324,0.013523,0.002678,0.000431,0.002351
36600,0.0324,0.013523,0.002678,0.000431,0.000000
36700,0.0324,0.013523,0.002678,0.000431,0.001175
36800,0.0324,0.013523,0.002678,0.000431,0.001175
36900,0.0324,0.013523,0.002678,0.000431,0.000000
37000,0.0324,0.013523,0.002678,0.000431,0.002351
37100,0.0324,0.013523,0.002678,0.000431,0.000000
37200,0.0324,0.013523,0.002678,0.000431,0.002351
37300,0.0324,0.013523,0.002678,0.000431,0.000000
37400,0.0324,0.013523,0.002678,0.000431,0.001175
37500,0.0324,0.013523,0.002678,0.000431,0.001175
37600,0.0324,0.013523,0.002678,0.000431,0.001175
37700,0.0324,0.013523,0.002678,0.000431,0.001175
37800,0.0324,0.013523,0.002678,0.000431,0.002351
37900,0.0324,0.013523,0.002678,0.000431,0.000000
38000,0.0324,0.013523,0.002678,0.000431,0.001175
38100,0.0324,0.013523,0.002678,0.000431,0.001175
38200,0.0324,0.013523,0.002678,0.000431,0.001175
38300,0.0324,0.013523,0.002678,0.000431,0.001175
38400,0.0324,0.013523,0.002678,0.000431,0.002351
38500,0.0324,0.013523,0.002678,0.000431,0.000000
38600,0.0324,0.013523,0.002678,0.000431,0.001175
38700,0.0324,0.013523,0.002678,0.000431,0.001175
38800,0.0324,0.013523,0.002678,0.000431,0.000000
38900,0.0324,0.013523,0.002678,0.000431,0.002351
39000,0.0324,0.013523,0.002678,0.000431,0.000000
39100,0.0324,0.013523,0.002678,0.000431,0.002351
39200,0.0324,0.013523,0.002678,0.000431,0.000000
39300,0.0324,0.013523,0.002678,0.000431,0.001175
39400,0.0324,0.013523,0.002678,0.000431,0.001175
39500,0.0324,0.013523,0.002678,0.000431,0.001175
39600,0.0324,0.013523,0.002678,0.000431,0.001175
39700,0.0324,0.013523,0.002678,0.000431,0.002351
39800,0.0324,0.013523,0.002678,0.000431,0.000000
39900,0.0324,0.013523,0.002678,0.000431,0.002351
40000,0.0324,0.013523,0.002678,0.000431,0.000000
40100,0.0324,0.013523,0.002678,0.000431,0.001175
40200,0.0324,0.013523,0.002678,0.000431,0.002351
40300,0.0324,0.013523,0.002678,0.000431,0.000000
40400,0.0324,0.013523,0.002678,0.000431,0.001175
40500,0.0324,0.013523,0.002678,0.000431,0.001175
40600,0.0324,0.013523,0.002678,0.000431,0.000000
40700,0.0324,0.013523,0.002678,0.000431,0.001175
40800,0.0324,0.013523,0.002678,0.000431,0.000000
40900,0.0324,0.013523,0.002678,0.000431,0.002351
41000,0.0324,0.013523,0.002678,0.000431,0.000000
41100,0.0324,0.013523,0.002678,0.000431,0.001175
41200,0.0324,0.013523,0.002678,0.000431,0.001175
41300,0.0324,0.013523,0.002678,0.000431,0.001175
41400,0.0324,0.013523,0.002678,0.000431,0.001175
41500,0.0324,0.013523,0.002678,0.000431,0.002351
41600,0.0324,0.013523,0.002678,0.000431,0.000000
41700,0.0324,0.013523,0.002678,0.000431,0.001175
41800,0.0324,0.013523,0.002678,0.000431,0.001175
41900,0.0324,0.013523,0.002678,0.000431,0.001175
42000,0.0324,0.013523,0.002678,0.000431,0.001175
42100,0.0324,0.013523,0.002678,0.000431,0.002351
42200,0.0324,0.013523,0.002678,0.000431,0.000000
42300,0.0324,0.013523,0.002678,0.000431,0.001175
42400,0.0324,0.013523,0.002678,0.000431,0.001175
42500,0.0324,0.013523,0.002678,0.000431,0.000000
42600,0.0324,0.013523,0.002678,0.000431,0.002351
42700,0.0324,0.013523,0.002678,0.000431,0.000000
42800,0.0324,0.013523,0.002678,0.000431,0.002351
42900,0.0324,0.013523,0.002678,0.000431,0.000000
43000,0.0324,0.013523,0.002678,0.000431,0.001175
43100,0.0324,0.013523,0.002678,0.000431,0.001175
43200,0.0324,0.013523,0.002678,0.000431,0.001175
43300,0.0324,0.013523,0.002678,0.000431,0.001175
43400,0.0324,0.013523,0.002678,0.000431,0.002351
43500,0.0324,0.013523,0.002678,0.000431,0.000000
43600,0.0324,0.013523,0.002678,0.000431,0.001175
43700,0.0324,0.013523,0.002678,0.000431,0.001175
43800,0.0324,0.013523,0.002678,0.000431,0.001175
43900,0.0324,0.013523,0.002678,0.000431,0.001175
44000,0.0324,0.013523,0.002678,0.000431,0.002351
44100,0.0324,0.013523,0.002678,0.000431,0.000000
44200,0.0324,0.013523,0.002678,0.000431,0.001175
44300,0.0324,0.013523,0.002678,0.000431,0.001175
44400,0.0324,0.013523,0.002678,0.000431,0.001175
44500,0.0324,0.013523,0.002678,0.000431,0.001175
44600,0.0324,0.013523,0.002678,0.000431,0.001175
44700,0.0324,0.013523,0.002678,0.000431,0.001175
44800,0.0324,0.013523,0.002678,0.000431,0.000000
44900,0.0324,0.013523,0.002678,0.000431,0.001175
45000,0.0324,0.013523,0.002678,0.000431,0.002351
45100,0.0324,0.013523,0.002678,0.000431,0.000000
45200,0.0324,0.013523,0.002678,0.000431,0.002351
45300,0.0324,0.013523,0.002678,0.000431,0.001175
45400,0.0324,0.013523,0.002678,0.000431,0.000000
45500,0.0324,0.013523,0.002678,0.000431,0.002351
45600,0.0324,0.013523,0.002678,0.000431,0.000000
45700,0.0324,0.013523,0.002678,0.000431,0.001175
45800,0.0324,0.013523,0.002678,0.000431,0.002351
45900,0.0324,0.013523,0.002678,0.000431,0.000000
46000,0.0324,0.013523,0.002678,0.000431,0.001175
46100,0.0324,0.013523,0.002678,0.000431,0.001175
46200,0.0324,0.013523,0.002678,0.000431,0.001175
46300,0.0324,0.013523,0.002678,0.000431,0.000000
46400,0.0324,0.013523,0.002678,0.000431,0.002351
46500,0.0324,0.013523,0.002678,0.000431,0.000000
46600,0.0324,0.013523,0.002678,0.000431,0.001175
46700,0.0324,0.013523,0.002678,0.000431,0.001175
46800,0.0324,0.013523,0.002678,0.000431,0.000000
46900,0.0324,0.013523,0.002678,0.000431,0.002351
47000,0.0324,0.013523,0.002678,0.000431,0.000000
47100,0.0324,0.013523,0.002678,0.000431,0.002351
47200,0.0324,0.013523,0.002678,0.000431,0.000000
47300,0.0324,0.013523,0.002678,0.000431,0.001175
47400,0.0324,0.013523,0.002678,0.000431,0.001175
47500,0.0324,0.013523,0.002678,0.000431,0.001175
47600,0.0324,0.013523,0.002678,0.000431,0.001175
47700,0.0324,0.013523,0.002678,0.000431,0.002351
47800,0.0324,0.013523,0.002678,0.000431,0.000000
47900,0.0324,0.013523,0.002678,0.000431,0.001175
48000,0.0324,0.013523,0.002678,0.000431,0.001175
48100,0.0324,0.013523,0.002678,0.000431,0.001175
48200,0.0324,0.013523,0.002678,0.000431,0.001175
48300,0.0324,0.013523,0.002678,0.000431,0.001175
48400,0.0324,0.013523,0.002678,0.000431,0.001175
48500,0.0324,0.013523,0.002678,0.000431,0.000000
48600,0.0324,0.013523,0.002678,0.000431,0.001175
48700,0.0324,0.013523,0.002678,0.000431,0.001175
48800,0.0324,0.013523,0.002678,0.000431,0.001175
48900,0.0324,0.013523,0.002678,0.000431,0.001175
49000,0.0324,0.013523,0.002678,0.000431,0.002351
49100,0.0324,0.013523,0.002678,0.000431,0.000000
49200,0.0324,0.013523,0.002678,0.000431,0.001175
49300,0.0324,0.013523,0.002678,0.000431,0.001175
49400,0.0324,0.013523,0.002678,0.000431,0.001175
49500,0.0324,0.013523,0.002678,0.000431,0.001175
49600,0.0324,0.013523,0.002678,0.000431,0.002351
49700,0.0324,0.013523,0.002678,0.000431,0.000000
49800,0.0324,0.013523,0.002678,0.000431,0.001175
49900,0.0324,0.013523,0.002678,0.000431,0.001175
50000,0.0324,0.013523,0.002678,0.000431,0.001175
50100,0.0324,0.013523,0.002678,0.000431,0.001175
50200,0.0324,0.013523,0.002678,0.000431,0.002351
50300,0.0324,0.013523,0.002678,0.000431,0.000000
50400,0.0324,0.013523,0.002678,0.000431,0.001175
50500,0.0324,0.013523,0.002678,0.000431,0.001175
50600,0.0324,0.013523,0.002678,0.000431,0.001175
50700,0.0324,0.013523,0.002678,0.000431,0.001175
50800,0.0324,0.013523,0.002678,0.000431,0.001175
50900,0.0324,0.013523,0.002678,0.000431,0.001175
51000,0.0324,0.013523,0.002678,0.000431,0.000000
51100,0.0324,0.013523,0.002678,0.000431,0.002351
51200,0.0324,0.013523,0.002678,0.000431,0.000000
51300,0.0324,0.013523,0.002678,0.000431,0.001175
51400,0.0324,0.013523,0.002678,0.000431,0.002351
51500,0.0324,0.013523,0.002678,0.000431,0.000000
51600,0.0324,0.013523,0.002678,0.000431,0.001175
51700,0.0324,0.013523,0.002678,0.000431,0.001175
51800,0.0324,0.013523,0.002678,0.000431,0.001175
51900,0.0324,0.013523,0.002678,0.000431,0.000000
52000,0.0324,0.013523,0.002678,0.000431,0.002351
52100,0.0324,0.013523,0.002678,0.000431,0.000000
52200,0.0324,0.013523,0.002678,0.000431,0.001175
52300,0.0324,0.013523,0.002678,0.000431,0.001175
52400,0.0324,0.013523,0.002678,0.000431,0.000000
52500,0.0324,0.013523,0.002678,0.000431,0.002351
52600,0.0324,0.013523,0.002678,0.000431,0.000000
52700,0.0324,0.013523,0.002678,0.000431,0.002351
52800,0.0324,0.013523,0.002678,0.000431,0.000000
52900,0.0324,0.013523,0.002678,0.000431,0.001175
53000,0.0324,0.013523,0.002678,0.000431,0.001175
53100,0.0324,0.013523,0.002678,0.000431,0.001175
53200,0.0324,0.013523,0.002678,0.000431,0.001175
53300,0.0324,0.013523,0.002678,0.000431,0.002351
53400,0.0324,0.013523,0.002678,0.000431,0.000000
53500,0.0324,0.013523,0.002678,0.000431,0.001175
53600,0.0324,0.013523,0.002678,0.000431,0.001175
53700,0.0324,0.013523,0.002678,0.000431,0.001175
53800,0.0324,0.013523,0.002678,0.000431,0.001175
53900,0.0324,0.013523,0.002678,0.000431,0.002351
54000,0.0324,0.013523,0.002678,0.000431,0.000000
54100,0.0324,0.013523,0.002678,0.000431,0.001175
54200,0.0324,0.013523,0.002678,0.000431,0.001175
54300,0.0324,0.013523,0.002678,0.000431,0.000000
54400,0.0324,0.013523,0.002678,0.000431,0.002351
54500,0.0324,0.013523,0.002678,0.000431,0.000000
54600,0.0324,0.013523,0.002678,0.000431,0.002351
54700,0.0324,0.013523,0.002678,0.000431,0.000000
54800,0.0324,0.013523,0.002678,0.000431,0.001175
54900,0.0324,0.013523,0.002678,0.000431,0.001175
55000,0.0324,0.013523,0.002678,0.000431,0.001175
55100,0.0324,0.013523,0.002678,0.000431,0.001175
55200,0.0324,0.013523,0.002678,0.000431,0.002351
55300,0.0324,0.013523,0.002678,0.000431,0.000000
55400,0.0324,0.013523,0.002678,0.000431,0.001175
55500,0.0324,0.013523,0.002678,0.000431,0.001175
55600,0.0324,0.013523,0.002678,0.000431,0.001175
55700,0.0324,0.013523,0.002678,0.000431,0.001175
55800,0.0324,0.013523,0.002678,0.000431,0.002351
55900,0.0324,0.013523,0.002678,0.000431,0.000000
56000,0.0324,0.013523,0.002678,0.000431,0.001175
56100,0.0324,0.013523,0.002678,0.000431,0.001175
56200,0.0324,0.013523,0.002678,0.000431,0.001175
56300,0.0324,0.013523,0.002678,0.000431,0.001175
56400,0.0324,0.013523,0.002678,0.000431,0.001175
56500,0.0324,0.013523,0.002678,0.000431,0.001175
56600,0.0324,0.013523,0.002678,0.000431,0.000000
56700,0.0324,0.013523,0.002678,0.000431,0.002351
56800,0.0324,0.013523,0.002678,0.000431,0.000000
56900,0.0324,0.013523,0.002678,0.000431,0.001175
57000,0.0324,0.013523,0.002678,0.000431,0.002351
57100,0.0324,0.013523,0.002678,0.000431,0.000000
57200,0.0324,0.013523,0.002678,0.000431,0.001175
57300,0.0324,0.013523,0.002678,0.000431,0.001175
57400,0.0324,0.013523,0.002678,0.000431,0.001175
57500,0.0324,0.013523,0.002678,0.000431,0.000000
57600,0.0324,0.013523,0.002678,0.000431,0.002351
57700,0.0324,0.013523,0.002678,0.000431,0.000000
57800,0.0324,0.013523,0.002678,0.000431,0.001175
57900,0.0324,0.013523,0.002678,0.000431,0.001175
58000,0.0324,0.013523,0.002678,0.000431,0.001175
58100,0.0324,0.013523,0.002678,0.000431,0.001175
58200,0.0324,0.013523,0.002678,0.000431,0.001175
58300,0.0324,0.013523,0.002678,0.000431,0.001175
58400,0.0324,0.013523,0.002678,0.000431,0.000000
58500,0.0324,0.013523,0.002678,0.000431,0.001175
58600,0.0324,0.013523,0.002678,0.000431,0.001175
58700,0.0324,0.013523,0.002678,0.000431,0.001175
58800,0.0324,0.013523,0.002678,0.000431,0.001175
58900,0.0324,0.013523,0.002678,0.000431,0.002351
59000,0.0324,0.013523,0.002678,0.000431,0.000000
59100,0.0324,0.013523,0.002678,0.000431,0.001175
59200,0.0324,0.013523,0.002678,0.000431,0.001175
59300,0.0324,0.013523,0.002678,0.000431,0.001175
59400,0.0324,0.013523,0.002678,0.000431,0.001175
59500,0.0324,0.013523,0.002678,0.000431,0.002351
59600,0.0324,0.013523,0.002678,0.000431,0.000000
59700,0.0324,0.013523,0.002678,0.000431,0.001175
59800,0.0324,0.013523,0.002678,0.000431,0.001175
59900,0.0324,0.013523,0.002678,0.000431,0.000000
60000,0.0324,0.013523,0.002678,0.000431,0.002351
60100,0.0324,0.013523,0.002678,0.000431,0.000000
60200,0.0324,0.013523,0.002678,0.000431,0.002351
60300,0.0324,0.013523,0.002678,0.000431,0.000000
60400,0.0324,0.013523,0.002678,0.000431,0.001175
60500,0.0324,0.013523,0.002678,0.000431,0.001175
60600,0.0324,0.013523,0.002678,0.000431,0.001175
60700,0.0324,0.013523,0.002678,0.000431,0.001175
60800,0.0324,0.013523,0.002678,0.000431,0.002351
60900,0.0324,0.013523,0.002678,0.000431,0.000000
61000,0.0324,0.013523,0.002678,0.000431,0.001175
61100,0.0324,0.013523,0.002678,0.000431,0.001175
61200,0.0324,0.013523,0.002678,0.000431,0.001175
61300,0.0324,0.013523,0.002678,0.000431,0.001175
61400,0.0324,0.013523,0.002678,0.000431,0.002351
61500,0.0324,0.013523,0.002678,0.000431,0.000000
61600,0.0324,0.013523,0.002678,0.000431,0.001175
61700,0.0324,0.013523,0.002678,0.000431,0.001175
61800,0.0324,0.013523,0.002678,0.000431,0.001175
61900,0.0324,0.013523,0.002678,0.000431,0.001175
62000,0.0324,0.013523,0.002678,0.000431,0.001175
62100,0.0324,0.013523,0.002678,0.000431,0.001175
62200,0.0324,0.013523,0.002678,0.000431,0.000000
62300,0.0324,0.013523,0.002678,0.000431,0.002351
62400,0.0324,0.013523,0.002678,0.000431,0.000000
62500,0.0324,0.013523,0.002678,0.000431,0.001175
62600,0.0324,0.013523,0.002678,0.000431,0.002351
62700,0.0324,0.013523,0.002678,0.000431,0.000000
62800,0.0324,0.013523,0.002678,0.000431,0.001175
62900,0.0324,0.013523,0.002678,0.000431,0.001175
63000,0.0324,0.013523,0.002678,0.000431,0.001175
63100,0.0324,0.013523,0.002678,0.000431,0.000000
63200,0.0324,0.013523,0.002678,0.000431,0.002351
63300,0.0324,0.013523,0.002678,0.000431,0.000000
63400,0.0324,0.013523,0.002678,0.000431,0.001175
63500,0.0324,0.013523,0.002678,0.000431,0.001175
63600,0.0324,0.013523,0.002678,0.000431,0.001175
63700,0.0324,0.013523,0.002678,0.000431,0.001175
63800,0.0324,0.013523,0.002678,0.000431,0.002351
63900,0.0324,0.013523,0.002678,0.000431,0.000000
64000,0.0324,0.013523,0.002678,0.000431,0.001175
64100,0.0324,0.013523,0.002678,0.000431,0.001175
64200,0.0324,0.013523,0.002678,0.000431,0.000000
64300,0.0324,0.013523,0.002678,0.000431,0.002351
64400,0.0324,0.013523,0.002678,0.000431,0.000000
64500,0.0324,0.013523,0.002678,0.000431,0.002351
64600,0.0324,0.013523,0.002678,0.000431,0.000000
64700,0.0324,0.013523,0.002678,0.000431,0.001175
64800,0.0324,0.013523,0.002678,0.000431,0.001175
64900,0.0324,0.013523,0.002678,0.000431,0.001175
65000,0.0324,0.013523,0.002678,0.000431,0.001175
65100,0.0324,0.013523,0.002678,0.000431,0.002351
65200,0.0324,0.013523,0.002678,0.000431,0.000000
65300,0.0324,0.013523,0.002678,0.000431,0.001175
65400,0.0324,0.013523,0.002678,0.000431,0.001175
65500,0.0324,0.013523,0.002678,0.000431,0.001175
65600,0.0324,0.013523,0.002678,0.000431,0.001175
65700,0.0324,0.013523,0.002678,0.000431,0.002351
65800,0.0324,0.013523,0.002678,0.000431,0.000000
65900,0.0324,0.013523,0.002678,0.000431,0.001175
66000,0.0324,0.013523,0.002678,0.000431,0.001175
66100,0.0324,0.013523,0.002678,0.000431,0.000000
66200,0.0324,0.013523,0.002678,0.000431,0.002351
66300,0.0324,0.013523,0.002678,0.000431,0.000000
66400,0.0324,0.013523,0.002678,0.000431,0.002351
66500,0.0324,0.013523,0.002678,0.000431,0.000000
66600,0.0324,0.013523,0.002678,0.000431,0.001175
66700,0.0324,0.013523,0.002678,0.000431,0.001175
66800,0.0324,0.013523,0.002678,0.000431,0.001175
66900,0.0324,0.013523,0.002678,0.000431,0.001175
67000,0.0324,0.013523,0.002678,0.000431,0.002351
67100,0.0324,0.013523,0.002678,0.000431,0.000000
67200,0.0324,0.013523,0.002678,0.000431,0.001175
67300,0.0324,0.013523,0.002678,0.000431,0.001175
67400,0.0324,0.013523,0.002678,0.000431,0.001175
67500,0.0324,0.013523,0.002678,0.000431,0.001175
67600,0.0324,0.013523,0.002678,0.000431,0.002351
67700,0.0324,0.013523,0.002678,0.000431,0.000000
67800,0.0324,0.013523,0.002678,0.000431,0.001175
67900,0.0324,0.013523,0.002678,0.000431,0.001175
68000,0.0324,0.013523,0.002678,0.000431,0.000000
68100,0.0324,0.013523,0.002678,0.000431,0.001175
68200,0.0324,0.013523,0.002678,0.000431,0.002351
68300,0.0324,0.013523,0.002678,0.000431,0.000000
68400,0.0324,0.013523,0.002678,0.000431,0.001175
68500,0.0324,0.013523,0.002678,0.000431,0.001175
68600,0.0324,0.013523,0.002678,0.000431,0.001175
68700,0.0324,0.013523,0.002678,0.000431,0.000000
68800,0.0324,0.013523,0.002678,0.000431,0.002351
68900,0.0324,0.013523,0.002678,0.000431,0.000000
69000,0.0324,0.013523,0.002678,0.000431,0.001175
69100,0.0324,0.013523,0.002678,0.000431,0.001175
69200,0.0324,0.013523,0.002678,0.000431,0.001175
69300,0.0324,0.013523,0.002678,0.000431,0.001175
69400,0.0324,0.013523,0.002678,0.000431,0.002351
69500,0.0324,0.013523,0.002678,0.000431,0.000000
69600,0.0324,0.013523,0.002678,0.000431,0.001175
69700,0.0324,0.013523,0.002678,0.000431,0.001175
69800,0.0324,0.013523,0.002678,0.000431,0.001175
69900,0.0324,0.013523,0.002678,0.000431,0.001175
70000,0.0324,0.013523,0.002678,0.000431,0.001175
70100,0.0324,0.013523,0.002678,0.000431,0.001175
70200,0.0324,0.013523,0.002678,0.000431,0.000000
70300,0.0324,0.013523,0.002678,0.000431,0.001175
70400,0.0324,0.013523,0.002678,0.000431,0.001175
70500,0.0324,0.013523,0.002678,0.000431,0.001175
70600,0.0324,0.013523,0.002678,0.000431,0.001175
70700,0.0324,0.013523,0.002678,0.000431,0.002351
70800,0.0324,0.013523,0.002678,0.000431,0.000000
70900,0.0324,0.013523,0.002678,0.000431,0.001175
71000,0.0324,0.013523,0.002678,0.000431,0.001175
71100,0.0324,0.013523,0.002678,0.000431,0.001175
71200,0.0324,0.013523,0.002678,0.000431,0.001175
71300,0.0324,0.013523,0.002678,0.000431,0.002351
71400,0.0324,0.013523,0.002678,0.000431,0.000000
71500,0.0324,0.013523,0.002678,0.000431,0.001175
71600,0.0324,0.013523,0.002678,0.000431,0.001175
71700,0.0324,0.013523,0.002678,0.000431,0.000000
71800,0.0324,0.013523,0.002678,0.000431,0.002351
71900,0.0324,0.013523,0.002678,0.000431,0.001175
72000,0.0324,0.013523,0.002678,0.000431,0.001175
72100,0.0324,0.013523,0.002678,0.000431,0.000000
72200,0.0324,0.013523,0.002678,0.000431,0.001175
72300,0.0324,0.013523,0.002678,0.000431,0.001175
72400,0.0324,0.013523,0.002678,0.000431,0.001175
72500,0.0324,0.013523,0.002678,0.000431,0.001175
72600,0.0324,0.013523,0.002678,0.000431,0.002351
72700,0.0324,0.013523,0.002678,0.000431,0.000000
72800,0.0324,0.013523,0.002678,0.000431,0.001175
72900,0.0324,0.013523,0.002678,0.000431,0.001175
73000,0.0324,0.013523,0.002678,0.000431,0.001175
73100,0.0324,0.013523,0.002678,0.000431,0.001175
73200,0.0324,0.013523,0.002678,0.000431,0.002351
73300,0.0324,0.013523,0.002678,0.000431,0.000000
73400,0.0324,0.013523,0.002678,0.000431,0.002351
73500,0.0324,0.013523,0.002678,0.000431,0.000000
73600,0.0324,0.013523,0.002678,0.000431,0.001175
73700,0.0324,0.013523,0.002678,0.000431,0.001175
73800,0.0324,0.013523,0.002678,0.000431,0.001175
73900,0.0324,0.013523,0.002678,0.000431,0.001175
74000,0.0324,0.013523,0.002678,0.000431,0.000000
74100,0.0324,0.013523,0.002678,0.000431,0.001175
74200,0.0324,0.013523,0.002678,0.000431,0.001175
74300,0.0324,0.013523,0.002678,0.000431,0.000000
74400,0.0324,0.013523,0.002678,0.000431,0.002351
74500,0.0324,0.013523,0.002678,0.000431,0.000000
74600,0.0324,0.013523,0.002678,0.000431,0.001175
74700,0.0324,0.013523,0.002678,0.000431,0.001175
74800,0.0324,0.013523,0.002678,0.000431,0.001175
74900,0.0324,0.013523,0.002678,0.000431,0.001175
75000,0.0324,0.013523,0.002678,0.000431,0.002351
75100,0.0324,0.013523,0.002678,0.000431,0.000000
75200,0.0324,0.013523,0.002678,0.000431,0.001175
75300,0.0324,0.013523,0.002678,0.000431,0.001175
75400,0.0324,0.013523,0.002678,0.000431,0.001175
75500,0.0324,0.013523,0.002678,0.000431,0.001175
75600,0.0324,0.013523,0.002678,0.000431,0.001175
75700,0.0324,0.013523,0.002678,0.000431,0.001175
75800,0.0324,0.013523,0.002678,0.000431,0.001175
75900,0.0324,0.013523,0.002678,0.000431,0.001175
76000,0.0324,0.013523,0.002678,0.000431,0.000000
76100,0.0324,0.013523,0.002678,0.000431,0.002351
76200,0.0324,0.013523,0.002678,0.000431,0.000000
76300,0.0324,0.013523,0.002678,0.000431,0.002351
76400,0.0324,0.013523,0.002678,0.000431,0.000000
76500,0.0324,0.013523,0.002678,0.000431,0.001175
76600,0.0324,0.013523,0.002678,0.000431,0.001175
76700,0.0324,0.013523,0.002678,0.000431,0.001175
76800,0.0324,0.013523,0.002678,0.000431,0.001175
76900,0.0324,0.013523,0.002678,0.000431,0.002351
77000,0.0324,0.013523,0.002678,0.000431,0.000000
77100,0.0324,0.013523,0.002678,0.000431,0.001175
77200,0.0324,0.013523,0.002678,0.000431,0.001175
77300,0.0324,0.013523,0.002678,0.000431,0.001175
77400,0.0324,0.013523,0.002678,0.000431,0.001175
77500,0.0324,0.013523,0.002678,0.000431,0.001175
77600,0.0324,0.013523,0.002678,0.000431,0.001175
77700,0.0324,0.013523,0.002678,0.000431,0.000000
77800,0.0324,0.013523,0.002678,0.000431,0.001175
77900,0.0324,0.013523,0.002678,0.000431,0.001175
78000,0.0324,0.013523,0.002678,0.000431,0.001175
78100,0.0324,0.013523,0.002678,0.000431,0.001175
78200,0.0324,0.013523,0.002678,0.000431,0.002351
78300,0.0324,0.013523,0.002678,0.000431,0.000000
78400,0.0324,0.013523,0.002678,0.000431,0.001175
78500,0.0324,0.013523,0.002678,0.000431,0.001175
78600,0.0324,0.013523,0.002678,0.000431,0.001175
78700,0.0324,0.013523,0.002678,0.000431,0.001175
78800,0.0324,0.013523,0.002678,0.000431,0.002351
78900,0.0324,0.013523,0.002678,0.000431,0.000000
79000,0.0324,0.013523,0.002678,0.000431,0.002351
79100,0.0324,0.013523,0.002678,0.000431,0.000000
79200,0.0324,0.013523,0.002678,0.000431,0.001175
79300,0.0324,0.013523,0.002678,0.000431,0.002351
79400,0.0324,0.013523,0.002678,0.000431,0.000000
79500,0.0324,0.013523,0.002678,0.000431,0.001175
79600,0.0324,0.013523,0.002678,0.000431,0.000000
79700,0.0324,0.013523,0.002678,0.000431,0.001175
79800,0.0324,0.013523,0.002678,0.000431,0.001175
79900,0.0324,0.013523,0.002678,0.000431,0.000000
80000,0.0324,0.013523,0.002678,0.000431,0.002351
80100,0.0324,0.013523,0.002678,0.000431,0.000000
80200,0.0324,0.013523,0.002678,0.000431,0.001175
80300,0.0324,0.013523,0.002678,0.000431,0.001175
80400,0.0324,0.013523,0.002678,0.000431,0.001175
80500,0.0324,0.013523,0.002678,0.000431,0.001175
80600,0.0324,0.013523,0.002678,0.000431,0.002351
80700,0.0324,0.013523,0.002678,0.000431,0.000000
80800,0.0324,0.013523,0.002678,0.000431,0.001175
80900,0.0324,0.013523,0.002678,0.000431,0.001175
81000,0.0324,0.013523,0.002678,0.000431,0.001175
81100,0.0324,0.013523,0.002678,0.000431,0.001175
81200,0.0324,0.013523,0.002678,0.000431,0.002351
81300,0.0324,0.013523,0.002678,0.000431,0.000000
81400,0.0324,0.013523,0.002678,0.000431,0.001175
81500,0.0324,0.013523,0.002678,0.000431,0.001175
81600,0.0324,0.013523,0.002678,0.000431,0.000000
81700,0.0324,0.013523,0.002678,0.000431,0.002351
81800,0.0324,0.013523,0.002678,0.000431,0.000000
81900,0.0324,0.013523,0.002678,0.000431,0.002351
82000,0.0324,0.013523,0.002678,0.000431,0.000000
82100,0.0324,0.013523,0.002678,0.000431,0.001175
82200,0.0324,0.013523,0.002678,0.000431,0.001175
82300,0.0324,0.013523,0.002678,0.000431,0.001175
82400,0.0324,0.013523,0.002678,0.000431,0.001175
82500,0.0324,0.013523,0.002678,0.000431,0.002351
82600,0.0324,0.013523,0.002678,0.000431,0.000000
82700,0.0324,0.013523,0.002678,0.000431,0.001175
82800,0.0324,0.013523,0.002678,0.000431,0.001175
82900,0.0324,0.013523,0.002678,0.000431,0.001175
83000,0.0324,0.013523,0.002678,0.000431,0.001175
83100,0.0324,0.013523,0.002678,0.000431,0.002351
83200,0.0324,0.013523,0.002678,0.000431,0.000000
83300,0.0324,0.013523,0.002678,0.000431,0.001175
83400,0.0324,0.013523,0.002678,0.000431,0.001175
83500,0.0324,0.013523,0.002678,0.000431,0.000000
83600,0.0324,0.013523,0.002678,0.000431,0.002351
83700,0.0324,0.013523,0.002678,0.000431,0.000000
83800,0.0324,0.013523,0.002678,0.000431,0.002351
83900,0.0324,0.013523,0.002678,0.000431,0.000000
84000,0.0324,0.013523,0.002678,0.000431,0.001175
84100,0.0324,0.013523,0.002678,0.000431,0.001175
84200,0.0324,0.013523,0.002678,0.000431,0.001175
84300,0.0324,0.013523,0.002678,0.000431,0.001175
84400,0.0324,0.013523,0.002678,0.000431,0.002351
84500,0.0324,0.013523,0.002678,0.000431,0.000000
84600,0.0324,0.013523,0.002678,0.000431,0.002351
84700,0.0324,0.013523,0.002678,0.000431,0.000000
84800,0.0324,0.013523,0.002678,0.000431,0.001175
84900,0.0324,0.013523,0.002678,0.000431,0.002351
85000,0.0324,0.013523,0.002678,0.000431,0.000000
85100,0.0324,0.013523,0.002678,0.000431,0.001175
85200,0.0324,0.013523,0.002678,0.000431,0.001175
85300,0.0324,0.013523,0.002678,0.000431,0.000000
85400,0.0324,0.013523,0.002678,0.000431,0.001175
85500,0.0324,0.013523,0.002678,0.000431,0.001175
85600,0.0324,0.013523,0.002678,0.000431,0.001175
85700,0.0324,0.013523,0.002678,0.000431,0.000000
85800,0.0324,0.013523,0.002678,0.000431,0.001175
85900,0.0324,0.013523,0.002678,0.000431,0.001175
86000,0.0324,0.013523,0.002678,0.000431,0.001175
86100,0.0324,0.013523,0.002678,0.000431,0.001175
86200,0.0324,0.013523,0.002678,0.000431,0.002351
86300,0.0324,0.013523,0.002678,0.000431,0.000000
86400,0.0324,0.013523,0.002678,0.000431,0.001175
86500,0.0324,0.013523,0.002678,0.000431,0.001175
86600,0.0324,0.013523,0.002678,0.000431,0.001175
86700,0.0324,0.013523,0.002678,0.000431,0.001175
86800,0.0324,0.013523,0.002678,0.000431,0.002351
86900,0.0324,0.013523,0.002678,0.000431,0.000000
87000,0.0324,0.013523,0.002678,0.000431,0.001175
87100,0.0324,0.013523,0.002678,0.000431,0.001175
87200,0.0324,0.013523,0.002678,0.000431,0.000000
87300,0.0324,0.013523,0.002678,0.000431,0.002351
87400,0.0324,0.013523,0.002678,0.000431,0.000000
87500,0.0324,0.013523,0.002678,0.000431,0.002351
87600,0.0324,0.013523,0.002678,0.000431,0.000000
87700,0.0324,0.013523,0.002678,0.000431,0.001175
87800,0.0324,0.013523,0.002678,0.000431,0.001175
87900,0.0324,0.013523,0.002678,0.000431,0.001175
88000,0.0324,0.013523,0.002678,0.000431,0.001175
88100,0.0324,0.013523,0.002678,0.000431,0.002351
88200,0.0324,0.013523,0.002678,0.000431,0.000000
88300,0.0324,0.013523,0.002678,0.000431,0.001175
88400,0.0324,0.013523,0.002678,0.000431,0.001175
88500,0.0324,0.013523,0.002678,0.000431,0.001175
88600,0.0324,0.013523,0.002678,0.000431,0.001175
88700,0.0324,0.013523,0.002678,0.000431,0.002351
88800,0.0324,0.013523,0.002678,0.000431,0.000000
88900,0.0324,0.013523,0.002678,0.000431,0.001175
89000,0.0324,0.013523,0.002678,0.000431,0.001175
89100,0.0324,0.013523,0.002678,0.000431,0.001175
89200,0.0324,0.013523,0.002678,0.000431,0.001175
89300,0.0324,0.013523,0.002678,0.000431,0.001175
89400,0.0324,0.013523,0.002678,0.000431,0.001175
89500,0.0324,0.013523,0.002678,0.000431,0.000000
89600,0.0324,0.013523,0.002678,0.000431,0.001175
89700,0.0324,0.013523,0.002678,0.000431,0.002351
89800,0.0324,0.013523,0.002678,0.000431,0.000000
89900,0.0324,0.013523,0.002678,0.000431,0.002351
90000,0.0324,0.013523,0.002678,0.000431,0.001175
90100,0.0324,0.013523,0.002678,0.000431,0.000000
90200,0.0324,0.013523,0.002678,0.000431,0.002351
90300,0.0324,0.013523,0.002678,0.000431,0.000000
90400,0.0324,0.013523,0.002678,0.000431,0.001175
90500,0.0324,0.013523,0.002678,0.000431,0.002351
90600,0.0324,0.013523,0.002678,0.000431,0.000000
90700,0.0324,0.013523,0.002678,0.000431,0.001175
90800,0.0324,0.013523,0.002678,0.000431,0.001175
90900,0.0324,0.013523,0.002678,0.000431,0.001175
91000,0.0324,0.013523,0.002678,0.000431,0.000000
91100,0.0324,0.013523,0.002678,0.000431,0.002351
91200,0.0324,0.013523,0.002678,0.000431,0.000000
91300,0.0324,0.013523,0.002678,0.000431,0.001175
91400,0.0324,0.013523,0.002678,0.000431,0.001175
91500,0.0324,0.013523,0.002678,0.000431,0.000000
91600,0.0324,0.013523,0.002678,0.000431,0.002351
91700,0.0324,0.013523,0.002678,0.000431,0.000000
91800,0.0324,0.013523,0.002678,0.000431,0.002351
91900,0.0324,0.013523,0.002678,0.000431,0.000000
92000,0.0324,0.013523,0.002678,0.000431,0.001175
92100,0.0324,0.013523,0.002678,0.000431,0.001175
92200,0.0324,0.013523,0.002678,0.000431,0.001175
92300,0.0324,0.013523,0.002678,0.000431,0.001175
92400,0.0324,0.013523,0.002678,0.000431,0.002351
92500,0.0324,0.013523,0.002678,0.000431,0.000000
92600,0.0324,0.013523,0.002678,0.000431,0.001175
92700,0.0324,0.013523,0.002678,0.000431,0.001175
92800,0.0324,0.013523,0.002678,0.000431,0.001175
92900,0.0324,0.013523,0.002678,0.000431,0.001175
93000,0.0324,0.013523,0.002678,0.000431,0.001175
93100,0.0324,0.013523,0.002678,0.000431,0.001175
93200,0.0324,0.013523,0.002678,0.000431,0.000000
93300,0.0324,0.013523,0.002678,0.000431,0.001175
93400,0.0324,0.013523,0.002678,0.000431,0.001175
93500,0.0324,0.013523,0.002678,0.000431,0.001175
93600,0.0324,0.013523,0.002678,0.000431,0.001175
93700,0.0324,0.013523,0.002678,0.000431,0.002351
93800,0.0324,0.013523,0.002678,0.000431,0.000000
93900,0.0324,0.013523,0.002678,0.000431,0.001175
94000,0.0324,0.013523,0.002678,0.000431,0.001175
94100,0.0324,0.013523,0.002678,0.000431,0.001175
94200,0.0324,0.013523,0.002678,0.000431,0.001175
94300,0.0324,0.013523,0.002678,0.000431,0.002351
94400,0.0324,0.013523,0.002678,0.000431,0.000000
94500,0.0324,0.013523,0.002678,0.000431,0.001175
94600,0.0324,0.013523,0.002678,0.000431,0.001175
94700,0.0324,0.013523,0.002678,0.000431,0.001175
94800,0.0324,0.013523,0.002678,0.000431,0.001175
94900,0.0324,0.013523,0.002678,0.000431,0.002351
95000,0.0324,0.013523,0.002678,0.000431,0.000000
95100,0.0324,0.013523,0.002678,0.000431,0.001175
95200,0.0324,0.013523,0.002678,0.000431,0.001175
95300,0.0324,0.013523,0.002678,0.000431,0.001175
95400,0.0324,0.013523,0.002678,0.000431,0.001175
95500,0.0324,0.013523,0.002678,0.000431,0.001175
95600,0.0324,0.013523,0.002678,0.000431,0.001175
95700,0.0324,0.013523,0.002678,0.000431,0.000000
95800,0.0324,0.013523,0.002678,0.000431,0.002351
95900,0.0324,0.013523,0.002678,0.000431,0.000000
96000,0.0324,0.013523,0.002678,0.000431,0.001175
96100,0.0324,0.013523,0.002678,0.000431,0.002351
96200,0.0324,0.013523,0.002678,0.000431,0.000000
96300,0.0324,0.013523,0.002678,0.000431,0.001175
96400,0.0324,0.013523,0.002678,0.000431,0.001175
96500,0.0324,0.013523,0.002678,0.000431,0.001175
96600,0.0324,0.013523,0.002678,0.000431,0.000000
96700,0.0324,0.013523,0.002678,0.000431,0.002351
96800,0.0324,0.013523,0.002678,0.000431,0.000000
96900,0.0324,0.013523,0.002678,0.000431,0.001175
97000,0.0324,0.013523,0.002678,0.000431,0.001175
97100,0.0324,0.013523,0.002678,0.000431,0.000000
97200,0.0324,0.013523,0.002678,0.000431,0.002351
97300,0.0324,0.013523,0.002678,0.000431,0.000000
97400,0.0324,0.013523,0.002678,0.000431,0.002351
97500,0.0324,0.013523,0.002678,0.000431,0.000000
97600,0.0324,0.013523,0.002678,0.000431,0.001175
97700,0.0324,0.013523,0.002678,0.000431,0.001175
97800,0.0324,0.013523,0.002678,0.000431,0.001175
97900,0.0324,0.013523,0.002678,0.000431,0.001175
98000,0.0324,0.013523,0.002678,0.000431,0.002351
98100,0.0324,0.013523,0.002678,0.000431,0.000000
98200,0.0324,0.013523,0.002678,0.000431,0.001175
98300,0.0324,0.013523,0.002678,0.000431,0.001175
98400,0.0324,0.013523,0.002678,0.000431,0.001175
98500,0.0324,0.013523,0.002678,0.000431,0.001175
98600,0.0324,0.013523,0.002678,0.000431,0.002351
98700,0.0324,0.013523,0.002678,0.000431,0.000000
98800,0.0324,0.013523,0.002678,0.000431,0.001175
98900,0.0324,0.013523,0.002678,0.000431,0.001175
99000,0.0324,0.013523,0.002678,0.000431,0.000000
99100,0.0324,0.013523,0.002678,0.000431,0.002351
99200,0.0324,0.013523,0.002678,0.000431,0.000000
99300,0.0324,0.013523,0.002678,0.000431,0.002351
99400,0.0324,0.013523,0.002678,0.000431,0.000000
99500,0.0324,0.013523,0.002678,0.000431,0.001175
99600,0.0324,0.013523,0.002678,0.000431,0.001175
99700,0.0324,0.013523,0.002678,0.000431,0.001175
99800,0.0324,0.013523,0.002678,0.000431,0.001175
99900,0.0324,0.013523,0.002678,0.000431,0.002351
100000,0.0324,0.013523,0.002678,0.000431,0.000000
100100,0.0324,0.013523,0.002678,0.000431,0.001175
100200,0.0324,0.013523,0.002678,0.000431,0.001175
100300,0.0324,0.013523,0.002678,0.000431,0.001175
100400,0.0324,0.013523,0.002678,0.000431,0.001175
100500,0.0324,0.013523,0.002678,0.000431,0.002351
100600,0.0324,0.013523,0.002678,0.000431,0.000000
100700,0.0324,0.013523,0.002678,0.000431,0.001175
100800,0.0324,0.013523,0.002678,0.000431,0.001175
100900,0.0324,0.013523,0.002678,0.000431,0.001175
101000,0.0324,0.013523,0.002678,0.000431,0.001175
101100,0.0324,0.013523,0.002678,0.000431,0.001175
101200,0.0324,0.013523,0.002678,0.000431,0.001175
101300,0.0324,0.013523,0.002678,0.000431,0.000000
101400,0.0324,0.013523,0.002678,0.000431,0.002351
101500,0.0324,0.013523,0.002678,0.000431,0.000000
101600,0.0324,0.013523,0.002678,0.000431,0.001175
101700,0.0324,0.013523,0.002678,0.000431,0.002351
101800,0.0324,0.013523,0.002678,0.000431,0.000000
101900,0.0324,0.013523,0.002678,0.000431,0.001175
102000,0.0324,0.013523,0.002678,0.000431,0.001175
102100,0.0324,0.013523,0.002678,0.000431,0.001175
102200,0.0324,0.013523,0.002678,0.000431,0.000000
102300,0.0324,0.013523,0.002678,0.000431,0.002351
102400,0.0324,0.013523,0.002678,0.000431,0.000000
102500,0.0324,0.013523,0.002678,0.000431,0.001175
102600,0.0324,0.013523,0.002678,0.000431,0.001175
102700,0.0324,0.013523,0.002678,0.000431,0.001175
102800,0.0324,0.013523,0.002678,0.000431,0.001175
102900,0.0324,0.013523,0.002678,0.000431,0.001175
103000,0.0324,0.013523,0.002678,0.000431,0.001175
103100,0.0324,0.013523,0.002678,0.000431,0.000000
103200,0.0324,0.013523,0.002678,0.000431,0.001175
103300,0.0324,0.013523,0.002678,0.000431,0.001175
103400,0.0324,0.013523,0.002678,0.000431,0.001175
103500,0.0324,0.013523,0.002678,0.000431,0.001175
103600,0.0324,0.013523,0.002678,0.000431,0.002351
103700,0.0324,0.013523,0.002678,0.000431,0.000000
103800,0.0324,0.013523,0.002678,0.000431,0.001175
103900,0.0324,0.013523,0.002678,0.000431,0.001175
104000,0.0324,0.013523,0.002678,0.000431,0.001175
104100,0.0324,0.013523,0.002678,0.000431,0.001175
104200,0.0324,0.013523,0.002678,0.000431,0.002351
104300,0.0324,0.013523,0.002678,0.000431,0.000000
104400,0.0324,0.013523,0.002678,0.000431,0.001175
104500,0.0324,0.013523,0.002678,0.000431,0.001175
104600,0.0324,0.013523,0.002678,0.000431,0.001175
104700,0.0324,0.013523,0.002678,0.000431,0.001175
104800,0.0324,0.013523,0.002678,0.000431,0.001175
104900,0.0324,0.013523,0.002678,0.000431,0.001175
105000,0.0324,0.013523,0.002678,0.000431,0.000000
105100,0.0324,0.013523,0.002678,0.000431,0.001175
105200,0.0324,0.013523,0.002678,0.000431,0.001175
105300,0.0324,0.013523,0.002678,0.000431,0.001175
105400,0.0324,0.013523,0.002678,0.000431,0.001175
105500,0.0324,0.013523,0.002678,0.000431,0.002351
105600,0.0324,0.013523,0.002678,0.000431,0.000000
105700,0.0324,0.013523,0.002678,0.000431,0.001175
105800,0.0324,0.013523,0.002678,0.000431,0.001175
105900,0.0324,0.013523,0.002678,0.000431,0.001175
106000,0.0324,0.013523,0.002678,0.000431,0.001175
106100,0.0324,0.013523,0.002678,0.000431,0.002351
106200,0.0324,0.013523,0.002678,0.000431,0.000000
106300,0.0324,0.013523,0.002678,0.000431,0.001175
106400,0.0324,0.013523,0.002678,0.000431,0.001175
106500,0.0324,0.013523,0.002678,0.000431,0.001175
106600,0.0324,0.013523,0.002678,0.000431,0.001175
106700,0.0324,0.013523,0.002678,0.000431,0.001175
106800,0.0324,0.013523,0.002678,0.000431,0.001175
106900,0.0324,0.013523,0.002678,0.000431,0.000000
107000,0.0324,0.013523,0.002678,0.000431,0.002351
107100,0.0324,0.013523,0.002678,0.000431,0.000000
107200,0.0324,0.013523,0.002678,0.000431,0.001175
107300,0.0324,0.013523,0.002678,0.000431,0.002351
107400,0.0324,0.013523,0.002678,0.000431,0.000000
107500,0.0324,0.013523,0.002678,0.000431,0.001175
107600,0.0324,0.013523,0.002678,0.000431,0.001175
107700,0.0324,0.013523,0.002678,0.000431,0.001175
107800,0.0324,0.013523,0.002678,0.000431,0.000000
107900,0.0324,0.013523,0.002678,0.000431,0.002351
108000,0.0324,0.013523,0.002678,0.000431,0.000000
108100,0.0324,0.013523,0.002678,0.000431,0.001175
108200,0.0324,0.013523,0.002678,0.000431,0.001175
108300,0.0324,0.013523,0.002678,0.000431,0.001175
108400,0.0324,0.013523,0.002678,0.000431,0.001175
108500,0.0324,0.013523,0.002678,0.000431,0.002351
108600,0.0324,0.013523,0.002678,0.000431,0.000000
108700,0.0324,0.013523,0.002678,0.000431,0.001175
108800,0.0324,0.013523,0.002678,0.000431,0.001175
108900,0.0324,0.013523,0.002678,0.000431,0.000000
109000,0.0324,0.013523,0.002678,0.000431,0.002351
109100,0.0324,0.013523,0.002678,0.000431,0.000000
109200,0.0324,0.013523,0.002678,0.000431,0.002351
109300,0.0324,0.013523,0.002678,0.000431,0.000000
109400,0.0324,0.013523,0.002678,0.000431,0.001175
109500,0.0324,0.013523,0.002678,0.000431,0.001175
109600,0.0324,0.013523,0.002678,0.000431,0.001175
109700,0.0324,0.013523,0.002678,0.000431,0.001175
109800,0.0324,0.013523,0.002678,0.000431,0.002351
109900,0.0324,0.013523,0.002678,0.000431,0.000000
110000,0.0324,0.013523,0.002678,0.000431,0.001175
110100,0.0324,0.013523,0.002678,0.000431,0.001175
110200,0.0324,0.013523,0.002678,0.000431,0.001175
110300,0.0324,0.013523,0.002678,0.000431,0.001175
110400,0.0324,0.013523,0.002678,0.000431,0.002351
110500,0.0324,0.013523,0.002678,0.000431,0.000000
110600,0.0324,0.013523,0.002678,0.000431,0.001175
110700,0.0324,0.013523,0.002678,0.000431,0.001175
110800,0.0324,0.013523,0.002678,0.000431,0.000000
110900,0.0324,0.013523,0.002678,0.000431,0.002351
111000,0.0324,0.013523,0.002678,0.000431,0.000000
111100,0.0324,0.013523,0.002678,0.000431,0.002351
111200,0.0324,0.013523,0.002678,0.000431,0.000000
111300,0.0324,0.013523,0.002678,0.000431,0.001175
111400,0.0324,0.013523,0.002678,0.000431,0.001175
111500,0.0324,0.013523,0.002678,0.000431,0.001175
111600,0.0324,0.013523,0.002678,0.000431,0.001175
111700,0.0324,0.013523,0.002678,0.000431,0.002351
111800,0.0324,0.013523,0.002678,0.000431,0.000000
111900,0.0324,0.013523,0.002678,0.000431,0.001175
112000,0.0324,0.013523,0.002678,0.000431,0.001175
112100,0.0324,0.013523,0.002678,0.000431,0.001175
112200,0.0324,0.013523,0.002678,0.000431,0.001175
112300,0.0324,0.013523,0.002678,0.000431,0.002351
112400,0.0324,0.013523,0.002678,0.000431,0.000000
112500,0.0324,0.013523,0.002678,0.000431,0.001175
112600,0.0324,0.013523,0.002678,0.000431,0.001175
112700,0.0324,0.013523,0.002678,0.000431,0.000000
112800,0.0324,0.013523,0.002678,0.000431,0.001175
112900,0.0324,0.013523,0.002678,0.000431,0.002351
113000,0.0324,0.013523,0.002678,0.000431,0.000000
113100,0.0324,0.013523,0.002678,0.000431,0.001175
113200,0.0324,0.013523,0.002678,0.000431,0.001175
113300,0.0324,0.013523,0.002678,0.000431,0.001175
113400,0.0324,0.013523,0.002678,0.000431,0.000000
113500,0.0324,0.013523,0.002678,0.000431,0.002351
113600,0.0324,0.013523,0.002678,0.000431,0.000000
113700,0.0324,0.013523,0.002678,0.000431,0.001175
113800,0.0324,0.013523,0.002678,0.000431,0.001175
113900,0.0324,0.013523,0.002678,0.000431,0.001175
114000,0.0324,0.013523,0.002678,0.000431,0.001175
114100,0.0324,0.013523,0.002678,0.000431,0.002351
114200,0.0324,0.013523,0.002678,0.000431,0.000000
114300,0.0324,0.013523,0.002678,0.000431,0.001175
114400,0.0324,0.013523,0.002678,0.000431,0.001175
114500,0.0324,0.013523,0.002678,0.000431,0.001175
114600,0.0324,0.013523,0.002678,0.000431,0.001175
114700,0.0324,0.013523,0.002678,0.000431,0.001175
114800,0.0324,0.013523,0.002678,0.000431,0.001175
114900,0.0324,0.013523,0.002678,0.000431,0.000000
115000,0.0324,0.013523,0.002678,0.000431,0.001175
115100,0.0324,0.013523,0.002678,0.000431,0.001175
115200,0.0324,0.013523,0.002678,0.000431,0.001175
115300,0.0324,0.013523,0.002678,0.000431,0.001175
115400,0.0324,0.013523,0.002678,0.000431,0.002351
115500,0.0324,0.013523,0.002678,0.000431,0.000000
115600,0.0324,0.013523,0.002678,0.000431,0.001175
115700,0.0324,0.013523,0.002678,0.000431,0.001175
115800,0.0324,0.013523,0.002678,0.000431,0.001175
115900,0.0324,0.013523,0.002678,0.000431,0.001175
116000,0.0324,0.013523,0.002678,0.000431,0.002351
116100,0.0324,0.013523,0.002678,0.000431,0.000000
116200,0.0324,0.013523,0.002678,0.000431,0.001175
116300,0.0324,0.013523,0.002678,0.000431,0.001175
116400,0.0324,0.013523,0.002678,0.000431,0.001175
116500,0.0324,0.013523,0.002678,0.000431,0.001175
116600,0.0324,0.013523,0.002678,0.000431,0.001175
116700,0.0324,0.013523,0.002678,0.000431,0.001175
116800,0.0324,0.013523,0.002678,0.000431,0.000000
116900,0.0324,0.013523,0.002678,0.000431,0.001175
117000,0.0324,0.013523,0.002678,0.000431,0.001175
117100,0.0324,0.013523,0.002678,0.000431,0.001175
117200,0.0324,0.013523,0.002678,0.000431,0.001175
117300,0.0324,0.013523,0.002678,0.000431,0.002351
117400,0.0324,0.013523,0.002678,0.000431,0.000000
117500,0.0324,0.013523,0.002678,0.000431,0.001175
117600,0.0324,0.013523,0.002678,0.000431,0.001175
117700,0.0324,0.013523,0.002678,0.000431,0.001175
117800,0.0324,0.013523,0.002678,0.000431,0.001175
117900,0.0324,0.013523,0.002678,0.000431,0.002351
118000,0.0324,0.013523,0.002678,0.000431,0.000000
118100,0.0324,0.013523,0.002678,0.000431,0.002351
118200,0.0324,0.013523,0.002678,0.000431,0.000000
118300,0.0324,0.013523,0.002678,0.000431,0.001175
118400,0.0324,0.013523,0.002678,0.000431,0.002351
118500,0.0324,0.013523,0.002678,0.000431,0.000000
118600,0.0324,0.013523,0.002678,0.000431,0.001175
118700,0.0324,0.013523,0.002678,0.000431,0.000000
118800,0.0324,0.013523,0.002678,0.000431,0.001175
118900,0.0324,0.013523,0.002678,0.000431,0.001175
119000,0.0324,0.013523,0.002678,0.000431,0.000000
119100,0.0324,0.013523,0.002678,0.000431,0.002351
119200,0.0324,0.013523,0.002678,0.000431,0.000000
119300,0.0324,0.013523,0.002678,0.000431,0.001175
119400,0.0324,0.013523,0.002678,0.000431,0.001175
119500,0.0324,0.013523,0.002678,0.000431,0.001175
119600,0.0324,0.013523,0.002678,0.000431,0.001175
119700,0.0324,0.013523,0.002678,0.000431,0.002351
119800,0.0324,0.013523,0.002678,0.000431,0.000000
119900,0.0324,0.013523,0.002678,0.000431,0.001175
120000,0.0324,0.013523,0.002678,0.000431,0.001175
120100,0.0324,0.013523,0.002678,0.000431,0.001175
120200,0.0324,0.013523,0.002678,0.000431,0.001175
120300,0.0324,0.013523,0.002678,0.000431,0.002351
120400,0.0324,0.013523,0.002678,0.000431,0.000000
120500,0.0324,0.013523,0.002678,0.000431,0.001175
120600,0.0324,0.013523,0.002678,0.000431,0.001175
120700,0.0324,0.013523,0.002678,0.000431,0.000000
120800,0.0324,0.013523,0.002678,0.000431,0.002351
120900,0.0324,0.013523,0.002678,0.000431,0.000000
121000,0.0324,0.013523,0.002678,0.000431,0.002351
121100,0.0324,0.013523,0.002678,0.000431,0.000000
121200,0.0324,0.013523,0.002678,0.000431,0.001175
121300,0.0324,0.013523,0.002678,0.000431,0.001175
121400,0.0324,0.013523,0.002678,0.000431,0.001175
121500,0.0324,0.013523,0.002678,0.000431,0.001175
121600,0.0324,0.013523,0.002678,0.000431,0.002351
121700,0.0324,0.013523,0.002678,0.000431,0.000000
121800,0.0324,0.013523,0.002678,0.000431,0.001175
121900,0.0324,0.013523,0.002678,0.000431,0.001175
122000,0.0324,0.013523,0.002678,0.000431,0.001175
122100,0.0324,0.013523,0.002678,0.000431,0.001175
122200,0.0324,0.013523,0.002678,0.000431,0.001175
122300,0.0324,0.013523,0.002678,0.000431,0.001175
122400,0.0324,0.013523,0.002678,0.000431,0.000000
122500,0.0324,0.013523,0.002678,0.000431,0.001175
122600,0.0324,0.013523,0.002678,0.000431,0.001175
122700,0.0324,0.013523,0.002678,0.000431,0.001175
122800,0.0324,0.013523,0.002678,0.000431,0.001175
122900,0.0324,0.013523,0.002678,0.000431,0.002351
123000,0.0324,0.013523,0.002678,0.000431,0.000000
123100,0.0324,0.013523,0.002678,0.000431,0.001175
123200,0.0324,0.013523,0.002678,0.000431,0.001175
123300,0.0324,0.013523,0.002678,0.000431,0.001175
123400,0.0324,0.013523,0.002678,0.000431,0.001175
123500,0.0324,0.013523,0.002678,0.000431,0.002351
123600,0.0324,0.013523,0.002678,0.000431,0.000000
123700,0.0324,0.013523,0.002678,0.000431,0.002351
123800,0.0324,0.013523,0.002678,0.000431,0.000000
123900,0.0324,0.013523,0.002678,0.000431,0.001175
124000,0.0324,0.013523,0.002678,0.000431,0.002351
124100,0.0324,0.013523,0.002678,0.000431,0.000000
124200,0.0324,0.013523,0.002678,0.000431,0.001175
124300,0.0324,0.013523,0.002678,0.000431,0.000000
124400,0.0324,0.013523,0.002678,0.000431,0.001175
124500,0.0324,0.013523,0.002678,0.000431,0.001175
124600,0.0324,0.013523,0.002678,0.000431,0.000000
124700,0.0324,0.013523,0.002678,0.000431,0.002351
124800,0.0324,0.013523,0.002678,0.000431,0.000000
124900,0.0324,0.013523,0.002678,0.000431,0.001175
125000,0.0324,0.013523,0.002678,0.000431,0.001175
125100,0.0324,0.013523,0.002678,0.000431,0.001175
125200,0.0324,0.013523,0.002678,0.000431,0.001175
125300,0.0324,0.013523,0.002678,0.000431,0.002351
125400,0.0324,0.013523,0.002678,0.000431,0.000000
125500,0.0324,0.013523,0.002678,0.000431,0.001175
125600,0.0324,0.013523,0.002678,0.000431,0.001175
125700,0.0324,0.013523,0.002678,0.000431,0.001175
125800,0.0324,0.013523,0.002678,0.000431,0.001175
125900,0.0324,0.013523,0.002678,0.000431,0.002351
126000,0.0324,0.013523,0.002678,0.000431,0.000000
126100,0.0324,0.013523,0.002678,0.000431,0.001175
126200,0.0324,0.013523,0.002678,0.000431,0.001175
126300,0.0324,0.013523,0.002678,0.000431,0.000000
126400,0.0324,0.013523,0.002678,0.000431,0.002351
126500,0.0324,0.013523,0.002678,0.000431,0.000000
126600,0.0324,0.013523,0.002678,0.000431,0.002351
126700,0.0324,0.013523,0.002678,0.000431,0.000000
126800,0.0324,0.013523,0.002678,0.000431,0.001175
126900,0.0324,0.013523,0.002678,0.000431,0.001175
127000,0.0324,0.013523,0.002678,0.000431,0.001175
127100,0.0324,0.013523,0.002678,0.000431,0.001175
127200,0.0324,0.013523,0.002678,0.000431,0.002351
127300,0.0324,0.013523,0.002678,0.000431,0.000000
127400,0.0324,0.013523,0.002678,0.000431,0.001175
127500,0.0324,0.013523,0.002678,0.000431,0.001175
127600,0.0324,0.013523,0.002678,0.000431,0.001175
127700,0.0324,0.013523,0.002678,0.000431,0.001175
127800,0.0324,0.013523,0.002678,0.000431,0.002351
127900,0.0324,0.013523,0.002678,0.000431,0.000000
128000,0.0324,0.013523,0.002678,0.000431,0.001175
128100,0.0324,0.013523,0.002678,0.000431,0.001175
128200,0.0324,0.013523,0.002678,0.000431,0.000000
128300,0.0324,0.013523,0.002678,0.000431,0.002351
128400,0.0324,0.013523,0.002678,0.000431,0.000000
128500,0.0324,0.013523,0.002678,0.000431,0.002351
128600,0.0324,0.013523,0.002678,0.000431,0.000000
128700,0.0324,0.013523,0.002678,0.000431,0.001175
128800,0.0324,0.013523,0.002678,0.000431,0.002351
128900,0.0324,0.013523,0.002678,0.000431,0.000000
129000,0.0324,0.013523,0.002678,0.000431,0.002351
129100,0.0324,0.013523,0.002678,0.000431,0.001175
129200,0.0324,0.013523,0.002678,0.000431,0.000000
129300,0.0324,0.013523,0.002678,0.000431,0.002351
129400,0.0324,0.013523,0.002678,0.000431,0.000000
129500,0.0324,0.013523,0.002678,0.000431,0.001175
129600,0.0324,0.013523,0.002678,0.000431,0.002351
129700,0.0324,0.013523,0.002678,0.000431,0.000000
129800,0.0324,0.013523,0.002678,0.000431,0.001175
129900,0.0324,0.013523,0.002678,0.000431,0.001175
130000,0.0324,0.013523,0.002678,0.000431,0.001175
130100,0.0324,0.013523,0.002678,0.000431,0.000000
130200,0.0324,0.013523,0.002678,0.000431,0.001175
130300,0.0324,0.013523,0.002678,0.000431,0.001175
130400,0.0324,0.013523,0.002678,0.000431,0.000000
130500,0.0324,0.013523,0.002678,0.000431,0.001175
130600,0.0324,0.013523,0.002678,0.000431,0.001175
130700,0.0324,0.013523,0.002678,0.000431,0.001175
130800,0.0324,0.013523,0.002678,0.000431,0.001175
130900,0.0324,0.013523,0.002678,0.000431,0.002351
131000,0.0324,0.013523,0.002678,0.000431,0.000000
131100,0.0324,0.013523,0.002678,0.000431,0.001175
131200,0.0324,0.013523,0.002678,0.000431,0.001175
131300,0.0324,0.013523,0.002678,0.000431,0.001175
131400,0.0324,0.013523,0.002678,0.000431,0.001175
131500,0.0324,0.013523,0.002678,0.000431,0.002351
131600,0.0324,0.013523,0.002678,0.000431,0.000000
131700,0.0324,0.013523,0.002678,0.000431,0.001175
131800,0.0324,0.013523,0.002678,0.000431,0.001175
131900,0.0324,0.013523,0.002678,0.000431,0.000000
132000,0.0324,0.013523,0.002678,0.000431,0.002351
132100,0.0324,0.013523,0.002678,0.000431,0.000000
132200,0.0324,0.013523,0.002678,0.000431,0.002351
132300,0.0324,0.013523,0.002678,0.000431,0.000000
132400,0.0324,0.013523,0.002678,0.000431,0.001175
132500,0.0324,0.013523,0.002678,0.000431,0.001175
132600,0.0324,0.013523,0.002678,0.000431,0.001175
132700,0.0324,0.013523,0.002678,0.000431,0.001175
132800,0.0324,0.013523,0.002678,0.000431,0.002351
132900,0.0324,0.013523,0.002678,0.000431,0.000000
133000,0.0324,0.013523,0.002678,0.000431,0.001175
133100,0.0324,0.013523,0.002678,0.000431,0.001175
133200,0.0324,0.013523,0.002678,0.000431,0.001175
133300,0.0324,0.013523,0.002678,0.000431,0.001175
133400,0.0324,0.013523,0.002678,0.000431,0.002351
133500,0.0324,0.013523,0.002678,0.000431,0.000000
133600,0.0324,0.013523,0.002678,0.000431,0.001175
133700,0.0324,0.013523,0.002678,0.000431,0.001175
133800,0.0324,0.013523,0.002678,0.000431,0.001175
133900,0.0324,0.013523,0.002678,0.000431,0.001175
134000,0.0324,0.013523,0.002678,0.000431,0.001175
134100,0.0324,0.013523,0.002678,0.000431,0.001175
134200,0.0324,0.013523,0.002678,0.000431,0.000000
134300,0.0324,0.013523,0.002678,0.000431,0.001175
134400,0.0324,0.013523,0.002678,0.000431,0.002351
134500,0.0324,0.013523,0.002678,0.000431,0.000000
134600,0.0324,0.013523,0.002678,0.000431,0.002351
134700,0.0324,0.013523,0.002678,0.000431,0.001175
134800,0.0324,0.013523,0.002678,0.000431,0.000000
134900,0.0324,0.013523,0.002678,0.000431,0.002351
135000,0.0324,0.013523,0.002678,0.000431,0.000000
135100,0.0324,0.013523,0.002678,0.000431,0.001175
135200,0.0324,0.013523,0.002678,0.000431,0.002351
135300,0.0324,0.013523,0.002678,0.000431,0.000000
135400,0.0324,0.013523,0.002678,0.000431,0.001175
135500,0.0324,0.013523,0.002678,0.000431,0.001175
135600,0.0324,0.013523,0.002678,0.000431,0.001175
135700,0.0324,0.013523,0.002678,0.000431,0.000000
135800,0.0324,0.013523,0.002678,0.000431,0.002351
135900,0.0324,0.013523,0.002678,0.000431,0.000000
136000,0.0324,0.013523,0.002678,0.000431,0.001175
136100,0.0324,0.013523,0.002678,0.000431,0.001175
136200,0.0324,0.013523,0.002678,0.000431,0.000000
136300,0.0324,0.013523,0.002678,0.000431,0.002351
136400,0.0324,0.013523,0.002678,0.000431,0.000000
136500,0.0324,0.013523,0.002678,0.000431,0.002351
136600,0.0324,0.013523,0.002678,0.000431,0.000000
136700,0.0324,0.013523,0.002678,0.000431,0.001175
136800,0.0324,0.013523,0.002678,0.000431,0.001175
136900,0.0324,0.013523,0.002678,0.000431,0.001175
137000,0.0324,0.013523,0.002678,0.000431,0.001175
137100,0.0324,0.013523,0.002678,0.000431,0.002351
137200,0.0324,0.013523,0.002678,0.000431,0.000000
137300,0.0324,0.013523,0.002678,0.000431,0.001175
137400,0.0324,0.013523,0.002678,0.000431,0.001175
137500,0.0324,0.013523,0.002678,0.000431,0.001175
137600,0.0324,0.013523,0.002678,0.000431,0.001175
137700,0.0324,0.013523,0.002678,0.000431,0.001175
137800,0.0324,0.013523,0.002678,0.000431,0.001175
137900,0.0324,0.013523,0.002678,0.000431,0.000000
138000,0.0324,0.013523,0.002678,0.000431,0.001175
138100,0.0324,0.013523,0.002678,0.000431,0.001175
138200,0.0324,0.013523,0.002678,0.000431,0.002351
138300,0.0324,0.013523,0.002678,0.000431,0.000000
138400,0.0324,0.013523,0.002678,0.000431,0.002351
138500,0.0324,0.013523,0.002678,0.000431,0.000000
138600,0.0324,0.013523,0.002678,0.000431,0.001175
138700,0.0324,0.013523,0.002678,0.000431,0.001175
138800,0.0324,0.013523,0.002678,0.000431,0.001175
138900,0.0324,0.013523,0.002678,0.000431,0.001175
139000,0.0324,0.013523,0.002678,0.000431,0.002351
139100,0.0324,0.013523,0.002678,0.000431,0.000000
139200,0.0324,0.013523,0.002678,0.000431,0.001175
139300,0.0324,0.013523,0.002678,0.000431,0.001175
139400,0.0324,0.013523,0.002678,0.000431,0.001175
139500,0.0324,0.013523,0.002678,0.000431,0.001175
139600,0.0324,0.013523,0.002678,0.000431,0.002351
139700,0.0324,0.013523,0.002678,0.000431,0.000000
139800,0.0324,0.013523,0.002678,0.000431,0.001175
139900,0.0324,0.013523,0.002678,0.000431,0.001175
140000,0.0324,0.013523,0.002678,0.000431,0.001175
140100,0.0324,0.013523,0.002678,0.000431,0.001175
140200,0.0324,0.013523,0.002678,0.000431,0.001175
140300,0.0324,0.013523,0.002678,0.000431,0.001175
140400,0.0324,0.013523,0.002678,0.000431,0.000000
140500,0.0324,0.013523,0.002678,0.000431,0.002351
140600,0.0324,0.013523,0.002678,0.000431,0.000000
140700,0.0324,0.013523,0.002678,0.000431,0.001175
140800,0.0324,0.013523,0.002678,0.000431,0.002351
140900,0.0324,0.013523,0.002678,0.000431,0.000000
141000,0.0324,0.013523,0.002678,0.000431,0.001175
141100,0.0324,0.013523,0.002678,0.000431,0.001175
141200,0.0324,0.013523,0.002678,0.000431,0.001175
141300,0.0324,0.013523,0.002678,0.000431,0.000000
141400,0.0324,0.013523,0.002678,0.000431,0.002351
141500,0.0324,0.013523,0.002678,0.000431,0.000000
141600,0.0324,0.013523,0.002678,0.000431,0.001175
141700,0.0324,0.013523,0.002678,0.000431,0.001175
141800,0.0324,0.013523,0.002678,0.000431,0.000000
141900,0.0324,0.013523,0.002678,0.000431,0.002351
142000,0.0324,0.013523,0.002678,0.000431,0.000000
142100,0.0324,0.013523,0.002678,0.000431,0.002351
142200,0.0324,0.013523,0.002678,0.000431,0.000000
142300,0.0324,0.013523,0.002678,0.000431,0.001175
142400,0.0324,0.013523,0.002678,0.000431,0.001175
142500,0.0324,0.013523,0.002678,0.000431,0.001175
142600,0.0324,0.013523,0.002678,0.000431,0.001175
142700,0.0324,0.013523,0.002678,0.000431,0.002351
142800,0.0324,0.013523,0.002678,0.000431,0.000000
142900,0.0324,0.013523,0.002678,0.000431,0.001175
143000,0.0324,0.013523,0.002678,0.000431,0.001175
143100,0.0324,0.013523,0.002678,0.000431,0.001175
143200,0.0324,0.013523,0.002678,0.000431,0.001175
143300,0.0324,0.013523,0.002678,0.000431,0.002351
143400,0.0324,0.013523,0.002678,0.000431,0.000000
143500,0.0324,0.013523,0.002678,0.000431,0.001175
143600,0.0324,0.013523,0.002678,0.000431,0.001175
143700,0.0324,0.013523,0.002678,0.000431,0.000000
143800,0.0324,0.013523,0.002678,0.000431,0.002351
143900,0.0324,0.013523,0.002678,0.000431,0.000000
144000,0.0324,0.013523,0.002678,0.000431,0.002351
144100,0.0324,0.013523,0.002678,0.000431,0.000000
144200,0.0324,0.013523,0.002678,0.000431,0.001175
144300,0.0324,0.013523,0.002678,0.000431,0.001175
144400,0.0324,0.013523,0.002678,0.000431,0.001175
144500,0.0324,0.013523,0.002678,0.000431,0.001175
144600,0.0324,0.013523,0.002678,0.000431,0.002351
144700,0.0324,0.013523,0.002678,0.000431,0.000000
144800,0.0324,0.013523,0.002678,0.000431,0.001175
144900,0.0324,0.013523,0.002678,0.000431,0.001175
145000,0.0324,0.013523,0.002678,0.000431,0.001175
145100,0.0324,0.013523,0.002678,0.000431,0.001175
145200,0.0324,0.013523,0.002678,0.000431,0.002351
145300,0.0324,0.013523,0.002678,0.000431,0.000000
145400,0.0324,0.013523,0.002678,0.000431,0.001175
145500,0.0324,0.013523,0.002678,0.000431,0.001175
145600,0.0324,0.013523,0.002678,0.000431,0.001175
145700,0.0324,0.013523,0.002678,0.000431,0.001175
145800,0.0324,0.013523,0.002678,0.000431,0.001175
145900,0.0324,0.013523,0.002678,0.000431,0.001175
146000,0.0324,0.013523,0.002678,0.000431,0.000000
146100,0.0324,0.013523,0.002678,0.000431,0.002351
146200,0.0324,0.013523,0.002678,0.000431,0.000000
146300,0.0324,0.013523,0.002678,0.000431,0.001175
146400,0.0324,0.013523,0.002678,0.000431,0.002351
146500,0.0324,0.013523,0.002678,0.000431,0.000000
146600,0.0324,0.013523,0.002678,0.000431,0.001175
146700,0.0324,0.013523,0.002678,0.000431,0.001175
146800,0.0324,0.013523,0.002678,0.000431,0.001175
146900,0.0324,0.013523,0.002678,0.000431,0.000000
147000,0.0324,0.013523,0.002678,0.000431,0.002351
147100,0.0324,0.013523,0.002678,0.000431,0.000000
147200,0.0324,0.013523,0.002678,0.000431,0.001175
147300,0.0324,0.013523,0.002678,0.000431,0.001175
147400,0.0324,0.013523,0.002678,0.000431,0.001175
147500,0.0324,0.013523,0.002678,0.000431,0.001175
147600,0.0324,0.013523,0.002678,0.000431,0.001175
147700,0.0324,0.013523,0.002678,0.000431,0.001175
147800,0.0324,0.013523,0.002678,0.000431,0.000000
147900,0.0324,0.013523,0.002678,0.000431,0.001175
148000,0.0324,0.013523,0.002678,0.000431,0.001175
148100,0.0324,0.013523,0.002678,0.000431,0.001175
148200,0.0324,0.013523,0.002678,0.000431,0.001175
148300,0.0324,0.013523,0.002678,0.000431,0.002351
148400,0.0324,0.013523,0.002678,0.000431,0.000000
148500,0.0324,0.013523,0.002678,0.000431,0.001175
148600,0.0324,0.013523,0.002678,0.000431,0.001175
148700,0.0324,0.013523,0.002678,0.000431,0.001175
148800,0.0324,0.013523,0.002678,0.000431,0.001175
148900,0.0324,0.013523,0.002678,0.000431,0.002351
149000,0.0324,0.013523,0.002678,0.000431,0.000000
149100,0.0324,0.013523,0.002678,0.000431,0.001175
149200,0.0324,0.013523,0.002678,0.000431,0.001175
149300,0.0324,0.013523,0.002678,0.000431,0.001175
149400,0.0324,0.013523,0.002678,0.000431,0.001175
149500,0.0324,0.013523,0.002678,0.000431,0.001175
149600,0.0324,0.013523,0.002678,0.000431,0.001175
149700,0.0324,0.013523,0.002678,0.000431,0.000000
149800,0.0324,0.013523,0.002678,0.000431,0.001175
149900,0.0324,0.013523,0.002678,0.000431,0.001175
150000,0.0324,0.013523,0.002678,0.000431,0.001175
150100,0.0324,0.013523,0.002678,0.000431,0.001175
150200,0.0324,0.013523,0.002678,0.000431,0.002351
150300,0.0324,0.013523,0.002678,0.000431,0.000000
150400,0.0324,0.013523,0.002678,0.000431,0.001175
150500,0.0324,0.013523,0.002678,0.000431,0.001175
150600,0.0324,0.013523,0.002678,0.000431,0.001175
150700,0.0324,0.013523,0.002678,0.000431,0.001175
150800,0.0324,0.013523,0.002678,0.000431,0.002351
150900,0.0324,0.013523,0.002678,0.000431,0.000000
151000,0.0324,0.013523,0.002678,0.000431,0.001175
151100,0.0324,0.013523,0.002678,0.000431,0.001175
151200,0.0324,0.013523,0.002678,0.000431,0.001175
151300,0.0324,0.013523,0.002678,0.000431,0.001175
151400,0.0324,0.013523,0.002678,0.000431,0.001175
151500,0.0324,0.013523,0.002678,0.000431,0.001175
151600,0.0324,0.013523,0.002678,0.000431,0.000000
151700,0.0324,0.013523,0.002678,0.000431,0.002351
151800,0.0324,0.013523,0.002678,0.000431,0.000000
151900,0.0324,0.013523,0.002678,0.000431,0.001175
152000,0.0324,0.013523,0.002678,0.000431,0.002351
152100,0.0324,0.013523,0.002678,0.000431,0.000000
152200,0.0324,0.013523,0.002678,0.000431,0.001175
152300,0.0324,0.013523,0.002678,0.000431,0.001175
152400,0.0324,0.013523,0.002678,0.000431,0.001175
152500,0.0324,0.013523,0.002678,0.000431,0.000000
152600,0.0324,0.013523,0.002678,0.000431,0.002351
152700,0.0324,0.013523,0.002678,0.000431,0.000000
152800,0.0324,0.013523,0.002678,0.000431,0.001175
152900,0.0324,0.013523,0.002678,0.000431,0.001175
153000,0.0324,0.013523,0.002678,0.000431,0.001175
153100,0.0324,0.013523,0.002678,0.000431,0.001175
153200,0.0324,0.013523,0.002678,0.000431,0.002351
153300,0.0324,0.013523,0.002678,0.000431,0.000000
153400,0.0324,0.013523,0.002678,0.000431,0.001175
153500,0.0324,0.013523,0.002678,0.000431,0.001175
153600,0.0324,0.013523,0.002678,0.000431,0.000000
153700,0.0324,0.013523,0.002678,0.000431,0.002351
153800,0.0324,0.013523,0.002678,0.000431,0.000000
153900,0.0324,0.013523,0.002678,0.000431,0.002351
154000,0.0324,0.013523,0.002678,0.000431,0.000000
154100,0.0324,0.013523,0.002678,0.000431,0.001175
154200,0.0324,0.013523,0.002678,0.000431,0.001175
154300,0.0324,0.013523,0.002678,0.000431,0.001175
154400,0.0324,0.013523,0.002678,0.000431,0.001175
154500,0.0324,0.013523,0.002678,0.000431,0.002351
154600,0.0324,0.013523,0.002678,0.000431,0.000000
154700,0.0324,0.013523,0.002678,0.000431,0.001175
154800,0.0324,0.013523,0.002678,0.000431,0.001175
154900,0.0324,0.013523,0.002678,0.000431,0.001175
155000,0.0324,0.013523,0.002678,0.000431,0.001175
155100,0.0324,0.013523,0.002678,0.000431,0.002351
155200,0.0324,0.013523,0.002678,0.000431,0.000000
155300,0.0324,0.013523,0.002678,0.000431,0.001175
155400,0.0324,0.013523,0.002678,0.000431,0.001175
155500,0.0324,0.013523,0.002678,0.000431,0.000000
155600,0.0324,0.013523,0.002678,0.000431,0.002351
155700,0.0324,0.013523,0.002678,0.000431,0.000000
155800,0.0324,0.013523,0.002678,0.000431,0.002351
155900,0.0324,0.013523,0.002678,0.000431,0.000000
156000,0.0324,0.013523,0.002678,0.000431,0.001175
156100,0.0324,0.013523,0.002678,0.000431,0.001175
156200,0.0324,0.013523,0.002678,0.000431,0.001175
156300,0.0324,0.013523,0.002678,0.000431,0.001175
156400,0.0324,0.013523,0.002678,0.000431,0.002351
156500,0.0324,0.013523,0.002678,0.000431,0.000000
156600,0.0324,0.013523,0.002678,0.000431,0.001175
156700,0.0324,0.013523,0.002678,0.000431,0.001175
156800,0.0324,0.013523,0.002678,0.000431,0.000000
