Cycle,Area(mm^2),PeakDynamic(W),SubthresholdLeakage(W),GateLeakage(W),RunTimeDynamic(W)
9000000,0.0324,0.013523,0.002678,0.000431,0.000588
9001000,0.0324,0.013523,0.002678,0.000431,0.000588
9002000,0.0324,0.013523,0.002678,0.000431,0.000823
9003000,0.0324,0.013523,0.002678,0.000431,0.001175
9004000,0.0324,0.013523,0.002678,0.000431,0.001175
9005000,0.0324,0.013523,0.002678,0.000431,0.001293
9006000,0.0324,0.013523,0.002678,0.000431,0.001293
9007000,0.0324,0.013523,0.002678,0.000431,0.000588
9008000,0.0324,0.013523,0.002678,0.000431,0.001058
9009000,0.0324,0.013523,0.002678,0.000431,0.000823
9010000,0.0324,0.013523,0.002678,0.000431,0.001293
9011000,0.0324,0.013523,0.002678,0.000431,0.000470
9012000,0.0324,0.013523,0.002678,0.000431,0.000705
9013000,0.0324,0.013523,0.002678,0.000431,0.000705
9014000,0.0324,0.013523,0.002678,0.000431,0.001175
9015000,0.0324,0.013523,0.002678,0.000431,0.000470
9016000,0.0324,0.013523,0.002678,0.000431,0.000705
9017000,0.0324,0.013523,0.002678,0.000431,0.001410
9018000,0.0324,0.013523,0.002678,0.000431,0.000940
9019000,0.0324,0.013523,0.002678,0.000431,0.000705
9020000,0.0324,0.013523,0.002678,0.000431,0.001175
9021000,0.0324,0.013523,0.002678,0.000431,0.000705
9022000,0.0324,0.013523,0.002678,0.000431,0.001175
9023000,0.0324,0.013523,0.002678,0.000431,0.001293
9024000,0.0324,0.013523,0.002678,0.000431,0.001058
9025000,0.0324,0.013523,0.002678,0.000431,0.000705
9026000,0.0324,0.013523,0.002678,0.000431,0.001058
9027000,0.0324,0.013523,0.002678,0.000431,0.000823
9028000,0.0324,0.013523,0.002678,0.000431,0.000588
9029000,0.0324,0.013523,0.002678,0.000431,0.001058
9030000,0.0324,0.013523,0.002678,0.000431,0.000705
9031000,0.0324,0.013523,0.002678,0.000431,0.000705
9032000,0.0324,0.013523,0.002678,0.000431,0.001175
9033000,0.0324,0.013523,0.002678,0.000431,0.001293
9034000,0.0324,0.013523,0.002678,0.000431,0.001058
9035000,0.0324,0.013523,0.002678,0.000431,0.000823
9036000,0.0324,0.013523,0.002678,0.000431,0.001293
9037000,0.0324,0.013523,0.002678,0.000431,0.001175
9038000,0.0324,0.013523,0.002678,0.000431,0.000823
9039000,0.0324,0.013523,0.002678,0.000431,0.001175
9040000,0.0324,0.013523,0.002678,0.000431,0.001175
9041000,0.0324,0.013523,0.002678,0.000431,0.001058
9042000,0.0324,0.013523,0.002678,0.000431,0.000940
9043000,0.0324,0.013523,0.002678,0.000431,0.001175
9044000,0.0324,0.013523,0.002678,0.000431,0.000705
9045000,0.0324,0.013523,0.002678,0.000431,0.001175
9046000,0.0324,0.013523,0.002678,0.000431,0.001293
9047000,0.0324,0.013523,0.002678,0.000431,0.000588
9048000,0.0324,0.013523,0.002678,0.000431,0.000705
9049000,0.0324,0.013523,0.002678,0.000431,0.000470
9050000,0.0324,0.013523,0.002678,0.000431,0.000705
9051000,0.0324,0.013523,0.002678,0.000431,0.001175
9052000,0.0324,0.013523,0.002678,0.000431,0.000705
9053000,0.0324,0.013523,0.002678,0.000431,0.001175
9054000,0.0324,0.013523,0.002678,0.000431,0.001175
9055000,0.0324,0.013523,0.002678,0.000431,0.001058
9056000,0.0324,0.013523,0.002678,0.000431,0.000823
9057000,0.0324,0.013523,0.002678,0.000431,0.001293
9058000,0.0324,0.013523,0.002678,0.000431,0.000588
9059000,0.0324,0.013523,0.002678,0.000431,0.001175
9060000,0.0324,0.013523,0.002678,0.000431,0.000705
9061000,0.0324,0.013523,0.002678,0.000431,0.000470
9062000,0.0324,0.013523,0.002678,0.000431,0.000588
9063000,0.0324,0.013523,0.002678,0.000431,0.000588
9064000,0.0324,0.013523,0.002678,0.000431,0.000588
9065000,0.0324,0.013523,0.002678,0.000431,0.000588
9066000,0.0324,0.013523,0.002678,0.000431,0.000470
9067000,0.0324,0.013523,0.002678,0.000431,0.000705
9068000,0.0324,0.013523,0.002678,0.000431,0.000705
9069000,0.0324,0.013523,0.002678,0.000431,0.001175
9070000,0.0324,0.013523,0.002678,0.000431,0.001175
9071000,0.0324,0.013523,0.002678,0.000431,0.000588
9072000,0.0324,0.013523,0.002678,0.000431,0.000588
9073000,0.0324,0.013523,0.002678,0.000431,0.000940
9074000,0.0324,0.013523,0.002678,0.000431,0.000705
9075000,0.0324,0.013523,0.002678,0.000431,0.001175
9076000,0.0324,0.013523,0.002678,0.000431,0.000705
9077000,0.0324,0.013523,0.002678,0.000431,0.000705
9078000,0.0324,0.013523,0.002678,0.000431,0.001175
9079000,0.0324,0.013523,0.002678,0.000431,0.000705
9080000,0.0324,0.013523,0.002678,0.000431,0.000470
9081000,0.0324,0.013523,0.002678,0.000431,0.001175
9082000,0.0324,0.013523,0.002678,0.000431,0.000705
9083000,0.0324,0.013523,0.002678,0.000431,0.001175
9084000,0.0324,0.013523,0.002678,0.000431,0.000588
9085000,0.0324,0.013523,0.002678,0.000431,0.001058
9086000,0.0324,0.013523,0.002678,0.000431,0.000940
9087000,0.0324,0.013523,0.002678,0.000431,0.001175
9088000,0.0324,0.013523,0.002678,0.000431,0.001175
9089000,0.0324,0.013523,0.002678,0.000431,0.000705
9090000,0.0324,0.013523,0.002678,0.000431,0.001175
9091000,0.0324,0.013523,0.002678,0.000431,0.000470
9092000,0.0324,0.013523,0.002678,0.000431,0.001058
9093000,0.0324,0.013523,0.002678,0.000431,0.000823
9094000,0.0324,0.013523,0.002678,0.000431,0.000705
9095000,0.0324,0.013523,0.002678,0.000431,0.000705
9096000,0.0324,0.013523,0.002678,0.000431,0.000705
9097000,0.0324,0.013523,0.002678,0.000431,0.000470
9098000,0.0324,0.013523,0.002678,0.000431,0.000705
9099000,0.0324,0.013523,0.002678,0.000431,0.000588
9100000,0.0324,0.013523,0.002678,0.000431,0.000588
9101000,0.0324,0.013523,0.002678,0.000431,0.001293
9102000,0.0324,0.013523,0.002678,0.000431,0.000588
9103000,0.0324,0.013523,0.002678,0.000431,0.001175
9104000,0.0324,0.013523,0.002678,0.000431,0.000705
9105000,0.0324,0.013523,0.002678,0.000431,0.000705
9106000,0.0324,0.013523,0.002678,0.000431,0.001175
9107000,0.0324,0.013523,0.002678,0.000431,0.001175
9108000,0.0324,0.013523,0.002678,0.000431,0.000588
9109000,0.0324,0.013523,0.002678,0.000431,0.000588
9110000,0.0324,0.013523,0.002678,0.000431,0.000470
9111000,0.0324,0.013523,0.002678,0.000431,0.000705
9112000,0.0324,0.013523,0.002678,0.000431,0.000705
9113000,0.0324,0.013523,0.002678,0.000431,0.001175
9114000,0.0324,0.013523,0.002678,0.000431,0.001175
9115000,0.0324,0.013523,0.002678,0.000431,0.000588
9116000,0.0324,0.013523,0.002678,0.000431,0.000588
9117000,0.0324,0.013523,0.002678,0.000431,0.000470
9118000,0.0324,0.013523,0.002678,0.000431,0.000705
9119000,0.0324,0.013523,0.002678,0.000431,0.000705
9120000,0.0324,0.013523,0.002678,0.000431,0.001175
9121000,0.0324,0.013523,0.002678,0.000431,0.001175
9122000,0.0324,0.013523,0.002678,0.000431,0.000705
9123000,0.0324,0.013523,0.002678,0.000431,0.001175
9124000,0.0324,0.013523,0.002678,0.000431,0.001293
9125000,0.0324,0.013523,0.002678,0.000431,0.000588
9126000,0.0324,0.013523,0.002678,0.000431,0.001175
9127000,0.0324,0.013523,0.002678,0.000431,0.000588
9128000,0.0324,0.013523,0.002678,0.000431,0.001293
9129000,0.0324,0.013523,0.002678,0.000431,0.001175
9130000,0.0324,0.013523,0.002678,0.000431,0.001175
9131000,0.0324,0.013523,0.002678,0.000431,0.000705
9132000,0.0324,0.013523,0.002678,0.000431,0.000705
9133000,0.0324,0.013523,0.002678,0.000431,0.000470
9134000,0.0324,0.013523,0.002678,0.000431,0.000705
9135000,0.0324,0.013523,0.002678,0.000431,0.001175
9136000,0.0324,0.013523,0.002678,0.000431,0.001293
9137000,0.0324,0.013523,0.002678,0.000431,0.000588
9138000,0.0324,0.013523,0.002678,0.000431,0.000588
9139000,0.0324,0.013523,0.002678,0.000431,0.000588
9140000,0.0324,0.013523,0.002678,0.000431,0.001175
9141000,0.0324,0.013523,0.002678,0.000431,0.000705
9142000,0.0324,0.013523,0.002678,0.000431,0.001410
9143000,0.0324,0.013523,0.002678,0.000431,0.001175
9144000,0.0324,0.013523,0.002678,0.000431,0.000470
9145000,0.0324,0.013523,0.002678,0.000431,0.000705
9146000,0.0324,0.013523,0.002678,0.000431,0.000470
9147000,0.0324,0.013523,0.002678,0.000431,0.000823
9148000,0.0324,0.013523,0.002678,0.000431,0.001528
9149000,0.0324,0.013523,0.002678,0.000431,0.001528
9150000,0.0324,0.013523,0.002678,0.000431,0.001058
9151000,0.0324,0.013523,0.002678,0.000431,0.001175
9152000,0.0324,0.013523,0.002678,0.000431,0.001645
9153000,0.0324,0.013523,0.002678,0.000431,0.000470
9154000,0.0324,0.013523,0.002678,0.000431,0.001410
9155000,0.0324,0.013523,0.002678,0.000431,0.001175
9156000,0.0324,0.013523,0.002678,0.000431,0.001293
9157000,0.0324,0.013523,0.002678,0.000431,0.001293
9158000,0.0324,0.013523,0.002678,0.000431,0.001175
9159000,0.0324,0.013523,0.002678,0.000431,0.000705
9160000,0.0324,0.013523,0.002678,0.000431,0.001410
9161000,0.0324,0.013523,0.002678,0.000431,0.001293
9162000,0.0324,0.013523,0.002678,0.000431,0.001528
9163000,0.0324,0.013523,0.002678,0.000431,0.000940
9164000,0.0324,0.013523,0.002678,0.000431,0.001175
9165000,0.0324,0.013523,0.002678,0.000431,0.001410
9166000,0.0324,0.013523,0.002678,0.000431,0.001175
9167000,0.0324,0.013523,0.002678,0.000431,0.001410
9168000,0.0324,0.013523,0.002678,0.000431,0.001410
9169000,0.0324,0.013523,0.002678,0.000431,0.001175
9170000,0.0324,0.013523,0.002678,0.000431,0.001175
9171000,0.0324,0.013523,0.002678,0.000431,0.001528
9172000,0.0324,0.013523,0.002678,0.000431,0.001293
9173000,0.0324,0.013523,0.002678,0.000431,0.000940
9174000,0.0324,0.013523,0.002678,0.000431,0.001410
9175000,0.0324,0.013523,0.002678,0.000431,0.001175
9176000,0.0324,0.013523,0.002678,0.000431,0.001175
9177000,0.0324,0.013523,0.002678,0.000431,0.001410
9178000,0.0324,0.013523,0.002678,0.000431,0.001175
9179000,0.0324,0.013523,0.002678,0.000431,0.001175
9180000,0.0324,0.013523,0.002678,0.000431,0.001410
9181000,0.0324,0.013523,0.002678,0.000431,0.001175
9182000,0.0324,0.013523,0.002678,0.000431,0.001175
9183000,0.0324,0.013523,0.002678,0.000431,0.001175
9184000,0.0324,0.013523,0.002678,0.000431,0.001528
9185000,0.0324,0.013523,0.002678,0.000431,0.001293
9186000,0.0324,0.013523,0.002678,0.000431,0.001175
9187000,0.0324,0.013523,0.002678,0.000431,0.001293
9188000,0.0324,0.013523,0.002678,0.000431,0.001293
9189000,0.0324,0.013523,0.002678,0.000431,0.001293
9190000,0.0324,0.013523,0.002678,0.000431,0.001058
9191000,0.0324,0.013523,0.002678,0.000431,0.001410
9192000,0.0324,0.013523,0.002678,0.000431,0.001410
9193000,0.0324,0.013523,0.002678,0.000431,0.001175
9194000,0.0324,0.013523,0.002678,0.000431,0.001293
9195000,0.0324,0.013523,0.002678,0.000431,0.001293
9196000,0.0324,0.013523,0.002678,0.000431,0.001293
9197000,0.0324,0.013523,0.002678,0.000431,0.001293
9198000,0.0324,0.013523,0.002678,0.000431,0.001175
9199000,0.0324,0.013523,0.002678,0.000431,0.001293
9200000,0.0324,0.013523,0.002678,0.000431,0.000823
9201000,0.0324,0.013523,0.002678,0.000431,0.001175
9202000,0.0324,0.013523,0.002678,0.000431,0.001175
9203000,0.0324,0.013523,0.002678,0.000431,0.000470
9204000,0.0324,0.013523,0.002678,0.000431,0.000705
9205000,0.0324,0.013523,0.002678,0.000431,0.000470
9206000,0.0324,0.013523,0.002678,0.000431,0.001058
9207000,0.0324,0.013523,0.002678,0.000431,0.000823
9208000,0.0324,0.013523,0.002678,0.000431,0.000823
9209000,0.0324,0.013523,0.002678,0.000431,0.001058
9210000,0.0324,0.013523,0.002678,0.000431,0.000470
9211000,0.0324,0.013523,0.002678,0.000431,0.000940
9212000,0.0324,0.013523,0.002678,0.000431,0.000940
9213000,0.0324,0.013523,0.002678,0.000431,0.001410
9214000,0.0324,0.013523,0.002678,0.000431,0.000588
9215000,0.0324,0.013523,0.002678,0.000431,0.001293
9216000,0.0324,0.013523,0.002678,0.000431,0.001175
9217000,0.0324,0.013523,0.002678,0.000431,0.000705
9218000,0.0324,0.013523,0.002678,0.000431,0.001175
9219000,0.0324,0.013523,0.002678,0.000431,0.000588
9220000,0.0324,0.013523,0.002678,0.000431,0.000588
9221000,0.0324,0.013523,0.002678,0.000431,0.000705
9222000,0.0324,0.013523,0.002678,0.000431,0.001175
9223000,0.0324,0.013523,0.002678,0.000431,0.000470
9224000,0.0324,0.013523,0.002678,0.000431,0.001175
9225000,0.0324,0.013523,0.002678,0.000431,0.000823
9226000,0.0324,0.013523,0.002678,0.000431,0.000588
9227000,0.0324,0.013523,0.002678,0.000431,0.001175
9228000,0.0324,0.013523,0.002678,0.000431,0.000705
9229000,0.0324,0.013523,0.002678,0.000431,0.001175
9230000,0.0324,0.013523,0.002678,0.000431,0.001293
9231000,0.0324,0.013523,0.002678,0.000431,0.001058
9232000,0.0324,0.013523,0.002678,0.000431,0.000823
9233000,0.0324,0.013523,0.002678,0.000431,0.001058
9234000,0.0324,0.013523,0.002678,0.000431,0.000940
9235000,0.0324,0.013523,0.002678,0.000431,0.001175
9236000,0.0324,0.013523,0.002678,0.000431,0.000470
9237000,0.0324,0.013523,0.002678,0.000431,0.000705
9238000,0.0324,0.013523,0.002678,0.000431,0.000470
9239000,0.0324,0.013523,0.002678,0.000431,0.000470
9240000,0.0324,0.013523,0.002678,0.000431,0.000940
9241000,0.0324,0.013523,0.002678,0.000431,0.000940
9242000,0.0324,0.013523,0.002678,0.000431,0.000588
9243000,0.0324,0.013523,0.002678,0.000431,0.001058
9244000,0.0324,0.013523,0.002678,0.000431,0.000705
9245000,0.0324,0.013523,0.002678,0.000431,0.001058
9246000,0.0324,0.013523,0.002678,0.000431,0.000823
9247000,0.0324,0.013523,0.002678,0.000431,0.000705
9248000,0.0324,0.013523,0.002678,0.000431,0.001175
9249000,0.0324,0.013523,0.002678,0.000431,0.000470
9250000,0.0324,0.013523,0.002678,0.000431,0.000705
9251000,0.0324,0.013523,0.002678,0.000431,0.001175
9252000,0.0324,0.013523,0.002678,0.000431,0.000588
9253000,0.0324,0.013523,0.002678,0.000431,0.000588
9254000,0.0324,0.013523,0.002678,0.000431,0.000705
9255000,0.0324,0.013523,0.002678,0.000431,0.001058
9256000,0.0324,0.013523,0.002678,0.000431,0.000588
9257000,0.0324,0.013523,0.002678,0.000431,0.000588
9258000,0.0324,0.013523,0.002678,0.000431,0.000588
9259000,0.0324,0.013523,0.002678,0.000431,0.000470
9260000,0.0324,0.013523,0.002678,0.000431,0.000588
9261000,0.0324,0.013523,0.002678,0.000431,0.000588
9262000,0.0324,0.013523,0.002678,0.000431,0.001175
9263000,0.0324,0.013523,0.002678,0.000431,0.000705
9264000,0.0324,0.013523,0.002678,0.000431,0.000470
9265000,0.0324,0.013523,0.002678,0.000431,0.000705
9266000,0.0324,0.013523,0.002678,0.000431,0.001175
9267000,0.0324,0.013523,0.002678,0.000431,0.000588
9268000,0.0324,0.013523,0.002678,0.000431,0.001058
9269000,0.0324,0.013523,0.002678,0.000431,0.000940
9270000,0.0324,0.013523,0.002678,0.000431,0.001058
9271000,0.0324,0.013523,0.002678,0.000431,0.000588
9272000,0.0324,0.013523,0.002678,0.000431,0.000705
9273000,0.0324,0.013523,0.002678,0.000431,0.000470
9274000,0.0324,0.013523,0.002678,0.000431,0.000470
9275000,0.0324,0.013523,0.002678,0.000431,0.000705
9276000,0.0324,0.013523,0.002678,0.000431,0.000470
9277000,0.0324,0.013523,0.002678,0.000431,0.001293
9278000,0.0324,0.013523,0.002678,0.000431,0.000588
9279000,0.0324,0.013523,0.002678,0.000431,0.000823
9280000,0.0324,0.013523,0.002678,0.000431,0.001058
9281000,0.0324,0.013523,0.002678,0.000431,0.001175
9282000,0.0324,0.013523,0.002678,0.000431,0.000588
9283000,0.0324,0.013523,0.002678,0.000431,0.000588
9284000,0.0324,0.013523,0.002678,0.000431,0.000470
9285000,0.0324,0.013523,0.002678,0.000431,0.001293
9286000,0.0324,0.013523,0.002678,0.000431,0.000588
9287000,0.0324,0.013523,0.002678,0.000431,0.000588
9288000,0.0324,0.013523,0.002678,0.000431,0.001058
9289000,0.0324,0.013523,0.002678,0.000431,0.000940
9290000,0.0324,0.013523,0.002678,0.000431,0.001058
9291000,0.0324,0.013523,0.002678,0.000431,0.000588
9292000,0.0324,0.013523,0.002678,0.000431,0.000470
9293000,0.0324,0.013523,0.002678,0.000431,0.000588
9294000,0.0324,0.013523,0.002678,0.000431,0.000588
9295000,0.0324,0.013523,0.002678,0.000431,0.000588
9296000,0.0324,0.013523,0.002678,0.000431,0.000588
9297000,0.0324,0.013523,0.002678,0.000431,0.001175
9298000,0.0324,0.013523,0.002678,0.000431,0.000823
9299000,0.0324,0.013523,0.002678,0.000431,0.001058
9300000,0.0324,0.013523,0.002678,0.000431,0.000470
9301000,0.0324,0.013523,0.002678,0.000431,0.000705
9302000,0.0324,0.013523,0.002678,0.000431,0.001175
9303000,0.0324,0.013523,0.002678,0.000431,0.000823
9304000,0.0324,0.013523,0.002678,0.000431,0.001058
9305000,0.0324,0.013523,0.002678,0.000431,0.000705
9306000,0.0324,0.013523,0.002678,0.000431,0.001175
9307000,0.0324,0.013523,0.002678,0.000431,0.001175
9308000,0.0324,0.013523,0.002678,0.000431,0.001175
9309000,0.0324,0.013523,0.002678,0.000431,0.001293
9310000,0.0324,0.013523,0.002678,0.000431,0.001293
9311000,0.0324,0.013523,0.002678,0.000431,0.000588
9312000,0.0324,0.013523,0.002678,0.000431,0.001058
9313000,0.0324,0.013523,0.002678,0.000431,0.000705
9314000,0.0324,0.013523,0.002678,0.000431,0.000588
9315000,0.0324,0.013523,0.002678,0.000431,0.000588
9316000,0.0324,0.013523,0.002678,0.000431,0.000470
9317000,0.0324,0.013523,0.002678,0.000431,0.000588
9318000,0.0324,0.013523,0.002678,0.000431,0.000588
9319000,0.0324,0.013523,0.002678,0.000431,0.000588
9320000,0.0324,0.013523,0.002678,0.000431,0.000588
9321000,0.0324,0.013523,0.002678,0.000431,0.000470
9322000,0.0324,0.013523,0.002678,0.000431,0.001410
9323000,0.0324,0.013523,0.002678,0.000431,0.000470
9324000,0.0324,0.013523,0.002678,0.000431,0.000470
9325000,0.0324,0.013523,0.002678,0.000431,0.001058
9326000,0.0324,0.013523,0.002678,0.000431,0.000823
9327000,0.0324,0.013523,0.002678,0.000431,0.001293
9328000,0.0324,0.013523,0.002678,0.000431,0.001058
9329000,0.0324,0.013523,0.002678,0.000431,0.000940
9330000,0.0324,0.013523,0.002678,0.000431,0.001058
9331000,0.0324,0.013523,0.002678,0.000431,0.001293
9332000,0.0324,0.013523,0.002678,0.000431,0.001175
9333000,0.0324,0.013523,0.002678,0.000431,0.000588
9334000,0.0324,0.013523,0.002678,0.000431,0.000588
9335000,0.0324,0.013523,0.002678,0.000431,0.000588
9336000,0.0324,0.013523,0.002678,0.000431,0.001058
9337000,0.0324,0.013523,0.002678,0.000431,0.000705
9338000,0.0324,0.013523,0.002678,0.000431,0.000588
9339000,0.0324,0.013523,0.002678,0.000431,0.000588
9340000,0.0324,0.013523,0.002678,0.000431,0.000470
9341000,0.0324,0.013523,0.002678,0.000431,0.000705
9342000,0.0324,0.013523,0.002678,0.000431,0.000470
9343000,0.0324,0.013523,0.002678,0.000431,0.000705
9344000,0.0324,0.013523,0.002678,0.000431,0.000470
9345000,0.0324,0.013523,0.002678,0.000431,0.000588
9346000,0.0324,0.013523,0.002678,0.000431,0.001058
9347000,0.0324,0.013523,0.002678,0.000431,0.000940
9348000,0.0324,0.013523,0.002678,0.000431,0.001058
9349000,0.0324,0.013523,0.002678,0.000431,0.000823
9350000,0.0324,0.013523,0.002678,0.000431,0.001058
9351000,0.0324,0.013523,0.002678,0.000431,0.000823
9352000,0.0324,0.013523,0.002678,0.000431,0.001058
9353000,0.0324,0.013523,0.002678,0.000431,0.001293
9354000,0.0324,0.013523,0.002678,0.000431,0.000940
9355000,0.0324,0.013523,0.002678,0.000431,0.000705
9356000,0.0324,0.013523,0.002678,0.000431,0.000705
9357000,0.0324,0.013523,0.002678,0.000431,0.001175
9358000,0.0324,0.013523,0.002678,0.000431,0.000470
9359000,0.0324,0.013523,0.002678,0.000431,0.000705
9360000,0.0324,0.013523,0.002678,0.000431,0.001175
9361000,0.0324,0.013523,0.002678,0.000431,0.000705
9362000,0.0324,0.013523,0.002678,0.000431,0.000705
9363000,0.0324,0.013523,0.002678,0.000431,0.001058
9364000,0.0324,0.013523,0.002678,0.000431,0.001293
9365000,0.0324,0.013523,0.002678,0.000431,0.000705
9366000,0.0324,0.013523,0.002678,0.000431,0.001058
9367000,0.0324,0.013523,0.002678,0.000431,0.001293
9368000,0.0324,0.013523,0.002678,0.000431,0.000588
9369000,0.0324,0.013523,0.002678,0.000431,0.000588
9370000,0.0324,0.013523,0.002678,0.000431,0.000470
9371000,0.0324,0.013523,0.002678,0.000431,0.000588
9372000,0.0324,0.013523,0.002678,0.000431,0.000588
9373000,0.0324,0.013523,0.002678,0.000431,0.000705
9374000,0.0324,0.013523,0.002678,0.000431,0.001058
9375000,0.0324,0.013523,0.002678,0.000431,0.000588
9376000,0.0324,0.013523,0.002678,0.000431,0.000588
9377000,0.0324,0.013523,0.002678,0.000431,0.000588
9378000,0.0324,0.013523,0.002678,0.000431,0.000588
9379000,0.0324,0.013523,0.002678,0.000431,0.000940
9380000,0.0324,0.013523,0.002678,0.000431,0.001058
9381000,0.0324,0.013523,0.002678,0.000431,0.001058
9382000,0.0324,0.013523,0.002678,0.000431,0.000588
9383000,0.0324,0.013523,0.002678,0.000431,0.001293
9384000,0.0324,0.013523,0.002678,0.000431,0.001058
9385000,0.0324,0.013523,0.002678,0.000431,0.000705
9386000,0.0324,0.013523,0.002678,0.000431,0.000588
9387000,0.0324,0.013523,0.002678,0.000431,0.000588
9388000,0.0324,0.013523,0.002678,0.000431,0.001175
9389000,0.0324,0.013523,0.002678,0.000431,0.001058
9390000,0.0324,0.013523,0.002678,0.000431,0.000823
9391000,0.0324,0.013523,0.002678,0.000431,0.000705
9392000,0.0324,0.013523,0.002678,0.000431,0.001410
9393000,0.0324,0.013523,0.002678,0.000431,0.001175
9394000,0.0324,0.013523,0.002678,0.000431,0.000470
9395000,0.0324,0.013523,0.002678,0.000431,0.000470
9396000,0.0324,0.013523,0.002678,0.000431,0.001175
9397000,0.0324,0.013523,0.002678,0.000431,0.000940
9398000,0.0324,0.013523,0.002678,0.000431,0.000940
9399000,0.0324,0.013523,0.002678,0.000431,0.000705
9400000,0.0324,0.013523,0.002678,0.000431,0.000705
9401000,0.0324,0.013523,0.002678,0.000431,0.001175
9402000,0.0324,0.013523,0.002678,0.000431,0.001175
9403000,0.0324,0.013523,0.002678,0.000431,0.000588
9404000,0.0324,0.013523,0.002678,0.000431,0.000823
9405000,0.0324,0.013523,0.002678,0.000431,0.000940
9406000,0.0324,0.013523,0.002678,0.000431,0.001410
9407000,0.0324,0.013523,0.002678,0.000431,0.000705
9408000,0.0324,0.013523,0.002678,0.000431,0.001175
9409000,0.0324,0.013523,0.002678,0.000431,0.001058
9410000,0.0324,0.013523,0.002678,0.000431,0.001058
9411000,0.0324,0.013523,0.002678,0.000431,0.000940
9412000,0.0324,0.013523,0.002678,0.000431,0.000705
9413000,0.0324,0.013523,0.002678,0.000431,0.001175
9414000,0.0324,0.013523,0.002678,0.000431,0.001293
9415000,0.0324,0.013523,0.002678,0.000431,0.000588
9416000,0.0324,0.013523,0.002678,0.000431,0.000470
9417000,0.0324,0.013523,0.002678,0.000431,0.001175
9418000,0.0324,0.013523,0.002678,0.000431,0.000705
9419000,0.0324,0.013523,0.002678,0.000431,0.000823
9420000,0.0324,0.013523,0.002678,0.000431,0.001058
9421000,0.0324,0.013523,0.002678,0.000431,0.001175
9422000,0.0324,0.013523,0.002678,0.000431,0.001293
9423000,0.0324,0.013523,0.002678,0.000431,0.001293
9424000,0.0324,0.013523,0.002678,0.000431,0.000470
9425000,0.0324,0.013523,0.002678,0.000431,0.000705
9426000,0.0324,0.013523,0.002678,0.000431,0.001175
9427000,0.0324,0.013523,0.002678,0.000431,0.000588
9428000,0.0324,0.013523,0.002678,0.000431,0.001058
9429000,0.0324,0.013523,0.002678,0.000431,0.000705
9430000,0.0324,0.013523,0.002678,0.000431,0.001175
9431000,0.0324,0.013523,0.002678,0.000431,0.000940
9432000,0.0324,0.013523,0.002678,0.000431,0.000940
9433000,0.0324,0.013523,0.002678,0.000431,0.001410
9434000,0.0324,0.013523,0.002678,0.000431,0.000470
9435000,0.0324,0.013523,0.002678,0.000431,0.000705
9436000,0.0324,0.013523,0.002678,0.000431,0.000470
9437000,0.0324,0.013523,0.002678,0.000431,0.000705
9438000,0.0324,0.013523,0.002678,0.000431,0.001175
9439000,0.0324,0.013523,0.002678,0.000431,0.001175
9440000,0.0324,0.013523,0.002678,0.000431,0.000588
9441000,0.0324,0.013523,0.002678,0.000431,0.000588
9442000,0.0324,0.013523,0.002678,0.000431,0.001175
9443000,0.0324,0.013523,0.002678,0.000431,0.000705
9444000,0.0324,0.013523,0.002678,0.000431,0.001175
9445000,0.0324,0.013523,0.002678,0.000431,0.001293
9446000,0.0324,0.013523,0.002678,0.000431,0.000588
9447000,0.0324,0.013523,0.002678,0.000431,0.001175
9448000,0.0324,0.013523,0.002678,0.000431,0.001058
9449000,0.0324,0.013523,0.002678,0.000431,0.000940
9450000,0.0324,0.013523,0.002678,0.000431,0.001058
9451000,0.0324,0.013523,0.002678,0.000431,0.001293
9452000,0.0324,0.013523,0.002678,0.000431,0.001058
9453000,0.0324,0.013523,0.002678,0.000431,0.000823
9454000,0.0324,0.013523,0.002678,0.000431,0.000823
9455000,0.0324,0.013523,0.002678,0.000431,0.000940
9456000,0.0324,0.013523,0.002678,0.000431,0.000705
9457000,0.0324,0.013523,0.002678,0.000431,0.000705
9458000,0.0324,0.013523,0.002678,0.000431,0.001175
9459000,0.0324,0.013523,0.002678,0.000431,0.001175
9460000,0.0324,0.013523,0.002678,0.000431,0.000470
9461000,0.0324,0.013523,0.002678,0.000431,0.001410
9462000,0.0324,0.013523,0.002678,0.000431,0.000470
9463000,0.0324,0.013523,0.002678,0.000431,0.001058
9464000,0.0324,0.013523,0.002678,0.000431,0.000823
9465000,0.0324,0.013523,0.002678,0.000431,0.000705
9466000,0.0324,0.013523,0.002678,0.000431,0.001175
9467000,0.0324,0.013523,0.002678,0.000431,0.001175
9468000,0.0324,0.013523,0.002678,0.000431,0.001175
9469000,0.0324,0.013523,0.002678,0.000431,0.001058
9470000,0.0324,0.013523,0.002678,0.000431,0.000823
9471000,0.0324,0.013523,0.002678,0.000431,0.000705
9472000,0.0324,0.013523,0.002678,0.000431,0.000705
9473000,0.0324,0.013523,0.002678,0.000431,0.001175
9474000,0.0324,0.013523,0.002678,0.000431,0.001175
9475000,0.0324,0.013523,0.002678,0.000431,0.000705
9476000,0.0324,0.013523,0.002678,0.000431,0.001058
9477000,0.0324,0.013523,0.002678,0.000431,0.000588
9478000,0.0324,0.013523,0.002678,0.000431,0.001293
9479000,0.0324,0.013523,0.002678,0.000431,0.000823
9480000,0.0324,0.013523,0.002678,0.000431,0.001175
9481000,0.0324,0.013523,0.002678,0.000431,0.001175
9482000,0.0324,0.013523,0.002678,0.000431,0.001175
9483000,0.0324,0.013523,0.002678,0.000431,0.001293
9484000,0.0324,0.013523,0.002678,0.000431,0.000588
9485000,0.0324,0.013523,0.002678,0.000431,0.001293
9486000,0.0324,0.013523,0.002678,0.000431,0.001058
9487000,0.0324,0.013523,0.002678,0.000431,0.000940
9488000,0.0324,0.013523,0.002678,0.000431,0.001175
9489000,0.0324,0.013523,0.002678,0.000431,0.001175
9490000,0.0324,0.013523,0.002678,0.000431,0.001058
9491000,0.0324,0.013523,0.002678,0.000431,0.001058
9492000,0.0324,0.013523,0.002678,0.000431,0.001175
9493000,0.0324,0.013523,0.002678,0.000431,0.001175
9494000,0.0324,0.013523,0.002678,0.000431,0.001175
9495000,0.0324,0.013523,0.002678,0.000431,0.001293
9496000,0.0324,0.013523,0.002678,0.000431,0.000588
9497000,0.0324,0.013523,0.002678,0.000431,0.000705
9498000,0.0324,0.013523,0.002678,0.000431,0.000588
9499000,0.0324,0.013523,0.002678,0.000431,0.001293
9500000,0.0324,0.013523,0.002678,0.000431,0.001175
9501000,0.0324,0.013523,0.002678,0.000431,0.000588
9502000,0.0324,0.013523,0.002678,0.000431,0.001058
9503000,0.0324,0.013523,0.002678,0.000431,0.000705
9504000,0.0324,0.013523,0.002678,0.000431,0.001175
9505000,0.0324,0.013523,0.002678,0.000431,0.000940
9506000,0.0324,0.013523,0.002678,0.000431,0.001058
9507000,0.0324,0.013523,0.002678,0.000431,0.001058
9508000,0.0324,0.013523,0.002678,0.000431,0.000823
9509000,0.0324,0.013523,0.002678,0.000431,0.000588
9510000,0.0324,0.013523,0.002678,0.000431,0.000588
9511000,0.0324,0.013523,0.002678,0.000431,0.000588
9512000,0.0324,0.013523,0.002678,0.000431,0.001175
9513000,0.0324,0.013523,0.002678,0.000431,0.001410
9514000,0.0324,0.013523,0.002678,0.000431,0.000705
9515000,0.0324,0.013523,0.002678,0.000431,0.001175
9516000,0.0324,0.013523,0.002678,0.000431,0.001175
9517000,0.0324,0.013523,0.002678,0.000431,0.000588
9518000,0.0324,0.013523,0.002678,0.000431,0.001293
9519000,0.0324,0.013523,0.002678,0.000431,0.000470
9520000,0.0324,0.013523,0.002678,0.000431,0.001410
9521000,0.0324,0.013523,0.002678,0.000431,0.001175
9522000,0.0324,0.013523,0.002678,0.000431,0.000705
9523000,0.0324,0.013523,0.002678,0.000431,0.000470
9524000,0.0324,0.013523,0.002678,0.000431,0.001293
9525000,0.0324,0.013523,0.002678,0.000431,0.001058
9526000,0.0324,0.013523,0.002678,0.000431,0.000940
9527000,0.0324,0.013523,0.002678,0.000431,0.001175
9528000,0.0324,0.013523,0.002678,0.000431,0.001175
9529000,0.0324,0.013523,0.002678,0.000431,0.001293
9530000,0.0324,0.013523,0.002678,0.000431,0.001058
9531000,0.0324,0.013523,0.002678,0.000431,0.000823
9532000,0.0324,0.013523,0.002678,0.000431,0.001293
9533000,0.0324,0.013523,0.002678,0.000431,0.001175
9534000,0.0324,0.013523,0.002678,0.000431,0.000823
9535000,0.0324,0.013523,0.002678,0.000431,0.001058
9536000,0.0324,0.013523,0.002678,0.000431,0.001175
9537000,0.0324,0.013523,0.002678,0.000431,0.000705
9538000,0.0324,0.013523,0.002678,0.000431,0.001175
9539000,0.0324,0.013523,0.002678,0.000431,0.001293
9540000,0.0324,0.013523,0.002678,0.000431,0.000588
9541000,0.0324,0.013523,0.002678,0.000431,0.000823
9542000,0.0324,0.013523,0.002678,0.000431,0.001058
9543000,0.0324,0.013523,0.002678,0.000431,0.000588
9544000,0.0324,0.013523,0.002678,0.000431,0.001058
9545000,0.0324,0.013523,0.002678,0.000431,0.000705
9546000,0.0324,0.013523,0.002678,0.000431,0.000705
9547000,0.0324,0.013523,0.002678,0.000431,0.001175
9548000,0.0324,0.013523,0.002678,0.000431,0.000705
9549000,0.0324,0.013523,0.002678,0.000431,0.000470
9550000,0.0324,0.013523,0.002678,0.000431,0.001175
9551000,0.0324,0.013523,0.002678,0.000431,0.000940
9552000,0.0324,0.013523,0.002678,0.000431,0.001175
9553000,0.0324,0.013523,0.002678,0.000431,0.001175
9554000,0.0324,0.013523,0.002678,0.000431,0.001175
9555000,0.0324,0.013523,0.002678,0.000431,0.001293
9556000,0.0324,0.013523,0.002678,0.000431,0.001058
9557000,0.0324,0.013523,0.002678,0.000431,0.000823
9558000,0.0324,0.013523,0.002678,0.000431,0.000588
9559000,0.0324,0.013523,0.002678,0.000431,0.000588
9560000,0.0324,0.013523,0.002678,0.000431,0.001058
9561000,0.0324,0.013523,0.002678,0.000431,0.000940
9562000,0.0324,0.013523,0.002678,0.000431,0.001175
9563000,0.0324,0.013523,0.002678,0.000431,0.001175
9564000,0.0324,0.013523,0.002678,0.000431,0.001175
9565000,0.0324,0.013523,0.002678,0.000431,0.001175
9566000,0.0324,0.013523,0.002678,0.000431,0.000940
9567000,0.0324,0.013523,0.002678,0.000431,0.000705
9568000,0.0324,0.013523,0.002678,0.000431,0.001058
9569000,0.0324,0.013523,0.002678,0.000431,0.001293
9570000,0.0324,0.013523,0.002678,0.000431,0.001293
9571000,0.0324,0.013523,0.002678,0.000431,0.001293
9572000,0.0324,0.013523,0.002678,0.000431,0.001175
9573000,0.0324,0.013523,0.002678,0.000431,0.001175
9574000,0.0324,0.013523,0.002678,0.000431,0.000940
9575000,0.0324,0.013523,0.002678,0.000431,0.001175
9576000,0.0324,0.013523,0.002678,0.000431,0.001175
9577000,0.0324,0.013523,0.002678,0.000431,0.001293
9578000,0.0324,0.013523,0.002678,0.000431,0.000588
9579000,0.0324,0.013523,0.002678,0.000431,0.001175
9580000,0.0324,0.013523,0.002678,0.000431,0.001293
9581000,0.0324,0.013523,0.002678,0.000431,0.001058
9582000,0.0324,0.013523,0.002678,0.000431,0.000940
9583000,0.0324,0.013523,0.002678,0.000431,0.001175
9584000,0.0324,0.013523,0.002678,0.000431,0.000470
9585000,0.0324,0.013523,0.002678,0.000431,0.001293
9586000,0.0324,0.013523,0.002678,0.000431,0.001058
9587000,0.0324,0.013523,0.002678,0.000431,0.000705
9588000,0.0324,0.013523,0.002678,0.000431,0.001058
9589000,0.0324,0.013523,0.002678,0.000431,0.001058
9590000,0.0324,0.013523,0.002678,0.000431,0.000940
9591000,0.0324,0.013523,0.002678,0.000431,0.000705
9592000,0.0324,0.013523,0.002678,0.000431,0.000705
9593000,0.0324,0.013523,0.002678,0.000431,0.001175
9594000,0.0324,0.013523,0.002678,0.000431,0.000705
9595000,0.0324,0.013523,0.002678,0.000431,0.001175
9596000,0.0324,0.013523,0.002678,0.000431,0.001175
9597000,0.0324,0.013523,0.002678,0.000431,0.001293
9598000,0.0324,0.013523,0.002678,0.000431,0.000588
9599000,0.0324,0.013523,0.002678,0.000431,0.001175
9600000,0.0324,0.013523,0.002678,0.000431,0.001058
9601000,0.0324,0.013523,0.002678,0.000431,0.000823
9602000,0.0324,0.013523,0.002678,0.000431,0.000705
9603000,0.0324,0.013523,0.002678,0.000431,0.000705
9604000,0.0324,0.013523,0.002678,0.000431,0.001175
9605000,0.0324,0.013523,0.002678,0.000431,0.001175
9606000,0.0324,0.013523,0.002678,0.000431,0.001175
9607000,0.0324,0.013523,0.002678,0.000431,0.001410
9608000,0.0324,0.013523,0.002678,0.000431,0.001175
9609000,0.0324,0.013523,0.002678,0.000431,0.000705
9610000,0.0324,0.013523,0.002678,0.000431,0.001175
9611000,0.0324,0.013523,0.002678,0.000431,0.001293
9612000,0.0324,0.013523,0.002678,0.000431,0.001058
9613000,0.0324,0.013523,0.002678,0.000431,0.000705
9614000,0.0324,0.013523,0.002678,0.000431,0.000705
9615000,0.0324,0.013523,0.002678,0.000431,0.001175
9616000,0.0324,0.013523,0.002678,0.000431,0.000705
9617000,0.0324,0.013523,0.002678,0.000431,0.001175
9618000,0.0324,0.013523,0.002678,0.000431,0.000588
9619000,0.0324,0.013523,0.002678,0.000431,0.000823
9620000,0.0324,0.013523,0.002678,0.000431,0.000940
9621000,0.0324,0.013523,0.002678,0.000431,0.001293
9622000,0.0324,0.013523,0.002678,0.000431,0.001058
9623000,0.0324,0.013523,0.002678,0.000431,0.000940
9624000,0.0324,0.013523,0.002678,0.000431,0.001175
9625000,0.0324,0.013523,0.002678,0.000431,0.001175
9626000,0.0324,0.013523,0.002678,0.000431,0.001293
9627000,0.0324,0.013523,0.002678,0.000431,0.001058
9628000,0.0324,0.013523,0.002678,0.000431,0.000940
9629000,0.0324,0.013523,0.002678,0.000431,0.001175
9630000,0.0324,0.013523,0.002678,0.000431,0.001175
9631000,0.0324,0.013523,0.002678,0.000431,0.001058
9632000,0.0324,0.013523,0.002678,0.000431,0.001058
9633000,0.0324,0.013523,0.002678,0.000431,0.001058
9634000,0.0324,0.013523,0.002678,0.000431,0.000588
9635000,0.0324,0.013523,0.002678,0.000431,0.001175
9636000,0.0324,0.013523,0.002678,0.000431,0.001293
9637000,0.0324,0.013523,0.002678,0.000431,0.000588
9638000,0.0324,0.013523,0.002678,0.000431,0.000705
9639000,0.0324,0.013523,0.002678,0.000431,0.001410
9640000,0.0324,0.013523,0.002678,0.000431,0.001175
9641000,0.0324,0.013523,0.002678,0.000431,0.000588
9642000,0.0324,0.013523,0.002678,0.000431,0.001058
9643000,0.0324,0.013523,0.002678,0.000431,0.000705
9644000,0.0324,0.013523,0.002678,0.000431,0.001175
9645000,0.0324,0.013523,0.002678,0.000431,0.000705
9646000,0.0324,0.013523,0.002678,0.000431,0.000705
9647000,0.0324,0.013523,0.002678,0.000431,0.000705
9648000,0.0324,0.013523,0.002678,0.000431,0.001175
9649000,0.0324,0.013523,0.002678,0.000431,0.001175
9650000,0.0324,0.013523,0.002678,0.000431,0.000705
9651000,0.0324,0.013523,0.002678,0.000431,0.001175
9652000,0.0324,0.013523,0.002678,0.000431,0.000705
9653000,0.0324,0.013523,0.002678,0.000431,0.001175
9654000,0.0324,0.013523,0.002678,0.000431,0.001175
9655000,0.0324,0.013523,0.002678,0.000431,0.001175
9656000,0.0324,0.013523,0.002678,0.000431,0.000940
9657000,0.0324,0.013523,0.002678,0.000431,0.001058
9658000,0.0324,0.013523,0.002678,0.000431,0.000588
9659000,0.0324,0.013523,0.002678,0.000431,0.001175
9660000,0.0324,0.013523,0.002678,0.000431,0.000705
9661000,0.0324,0.013523,0.002678,0.000431,0.000705
9662000,0.0324,0.013523,0.002678,0.000431,0.001175
9663000,0.0324,0.013523,0.002678,0.000431,0.001175
9664000,0.0324,0.013523,0.002678,0.000431,0.001058
9665000,0.0324,0.013523,0.002678,0.000431,0.001058
9666000,0.0324,0.013523,0.002678,0.000431,0.000940
9667000,0.0324,0.013523,0.002678,0.000431,0.001410
9668000,0.0324,0.013523,0.002678,0.000431,0.000470
9669000,0.0324,0.013523,0.002678,0.000431,0.001293
9670000,0.0324,0.013523,0.002678,0.000431,0.001293
9671000,0.0324,0.013523,0.002678,0.000431,0.001175
9672000,0.0324,0.013523,0.002678,0.000431,0.001175
9673000,0.0324,0.013523,0.002678,0.000431,0.000705
9674000,0.0324,0.013523,0.002678,0.000431,0.000705
9675000,0.0324,0.013523,0.002678,0.000431,0.001175
9676000,0.0324,0.013523,0.002678,0.000431,0.000705
9677000,0.0324,0.013523,0.002678,0.000431,0.001175
9678000,0.0324,0.013523,0.002678,0.000431,0.001175
9679000,0.0324,0.013523,0.002678,0.000431,0.001410
9680000,0.0324,0.013523,0.002678,0.000431,0.000470
9681000,0.0324,0.013523,0.002678,0.000431,0.001410
9682000,0.0324,0.013523,0.002678,0.000431,0.000705
9683000,0.0324,0.013523,0.002678,0.000431,0.001175
9684000,0.0324,0.013523,0.002678,0.000431,0.000470
9685000,0.0324,0.013523,0.002678,0.000431,0.000588
9686000,0.0324,0.013523,0.002678,0.000431,0.000823
9687000,0.0324,0.013523,0.002678,0.000431,0.000940
9688000,0.0324,0.013523,0.002678,0.000431,0.001410
9689000,0.0324,0.013523,0.002678,0.000431,0.001175
9690000,0.0324,0.013523,0.002678,0.000431,0.000705
9691000,0.0324,0.013523,0.002678,0.000431,0.001175
9692000,0.0324,0.013523,0.002678,0.000431,0.001293
9693000,0.0324,0.013523,0.002678,0.000431,0.001058
9694000,0.0324,0.013523,0.002678,0.000431,0.001175
9695000,0.0324,0.013523,0.002678,0.000431,0.001293
9696000,0.0324,0.013523,0.002678,0.000431,0.000823
9697000,0.0324,0.013523,0.002678,0.000431,0.001293
9698000,0.0324,0.013523,0.002678,0.000431,0.001293
9699000,0.0324,0.013523,0.002678,0.000431,0.000588
9700000,0.0324,0.013523,0.002678,0.000431,0.000588
9701000,0.0324,0.013523,0.002678,0.000431,0.001293
9702000,0.0324,0.013523,0.002678,0.000431,0.001058
9703000,0.0324,0.013523,0.002678,0.000431,0.000940
9704000,0.0324,0.013523,0.002678,0.000431,0.001175
9705000,0.0324,0.013523,0.002678,0.000431,0.001175
9706000,0.0324,0.013523,0.002678,0.000431,0.001293
9707000,0.0324,0.013523,0.002678,0.000431,0.001293
9708000,0.0324,0.013523,0.002678,0.000431,0.000470
9709000,0.0324,0.013523,0.002678,0.000431,0.001410
9710000,0.0324,0.013523,0.002678,0.000431,0.001293
9711000,0.0324,0.013523,0.002678,0.000431,0.001058
9712000,0.0324,0.013523,0.002678,0.000431,0.000940
9713000,0.0324,0.013523,0.002678,0.000431,0.001058
9714000,0.0324,0.013523,0.002678,0.000431,0.000823
9715000,0.0324,0.013523,0.002678,0.000431,0.001058
9716000,0.0324,0.013523,0.002678,0.000431,0.000588
9717000,0.0324,0.013523,0.002678,0.000431,0.001175
9718000,0.0324,0.013523,0.002678,0.000431,0.001175
9719000,0.0324,0.013523,0.002678,0.000431,0.000705
9720000,0.0324,0.013523,0.002678,0.000431,0.000823
9721000,0.0324,0.013523,0.002678,0.000431,0.001058
9722000,0.0324,0.013523,0.002678,0.000431,0.000705
9723000,0.0324,0.013523,0.002678,0.000431,0.001175
9724000,0.0324,0.013523,0.002678,0.000431,0.001175
9725000,0.0324,0.013523,0.002678,0.000431,0.001293
9726000,0.0324,0.013523,0.002678,0.000431,0.000588
9727000,0.0324,0.013523,0.002678,0.000431,0.000588
9728000,0.0324,0.013523,0.002678,0.000431,0.001293
9729000,0.0324,0.013523,0.002678,0.000431,0.001175
9730000,0.0324,0.013523,0.002678,0.000431,0.000588
9731000,0.0324,0.013523,0.002678,0.000431,0.001058
9732000,0.0324,0.013523,0.002678,0.000431,0.001410
9733000,0.0324,0.013523,0.002678,0.000431,0.000823
9734000,0.0324,0.013523,0.002678,0.000431,0.001058
9735000,0.0324,0.013523,0.002678,0.000431,0.001410
9736000,0.0324,0.013523,0.002678,0.000431,0.001175
9737000,0.0324,0.013523,0.002678,0.000431,0.000823
9738000,0.0324,0.013523,0.002678,0.000431,0.001058
9739000,0.0324,0.013523,0.002678,0.000431,0.001175
9740000,0.0324,0.013523,0.002678,0.000431,0.001293
9741000,0.0324,0.013523,0.002678,0.000431,0.000588
9742000,0.0324,0.013523,0.002678,0.000431,0.001293
9743000,0.0324,0.013523,0.002678,0.000431,0.001058
9744000,0.0324,0.013523,0.002678,0.000431,0.000823
9745000,0.0324,0.013523,0.002678,0.000431,0.000588
9746000,0.0324,0.013523,0.002678,0.000431,0.001175
9747000,0.0324,0.013523,0.002678,0.000431,0.001410
9748000,0.0324,0.013523,0.002678,0.000431,0.001175
9749000,0.0324,0.013523,0.002678,0.000431,0.000705
9750000,0.0324,0.013523,0.002678,0.000431,0.001293
9751000,0.0324,0.013523,0.002678,0.000431,0.001058
9752000,0.0324,0.013523,0.002678,0.000431,0.001410
9753000,0.0324,0.013523,0.002678,0.000431,0.000470
9754000,0.0324,0.013523,0.002678,0.000431,0.001293
9755000,0.0324,0.013523,0.002678,0.000431,0.001058
9756000,0.0324,0.013523,0.002678,0.000431,0.000705
9757000,0.0324,0.013523,0.002678,0.000431,0.001410
9758000,0.0324,0.013523,0.002678,0.000431,0.001175
9759000,0.0324,0.013523,0.002678,0.000431,0.000705
9760000,0.0324,0.013523,0.002678,0.000431,0.000705
9761000,0.0324,0.013523,0.002678,0.000431,0.001175
9762000,0.0324,0.013523,0.002678,0.000431,0.001175
9763000,0.0324,0.013523,0.002678,0.000431,0.000470
9764000,0.0324,0.013523,0.002678,0.000431,0.001410
9765000,0.0324,0.013523,0.002678,0.000431,0.001175
9766000,0.0324,0.013523,0.002678,0.000431,0.000588
9767000,0.0324,0.013523,0.002678,0.000431,0.000588
9768000,0.0324,0.013523,0.002678,0.000431,0.001175
9769000,0.0324,0.013523,0.002678,0.000431,0.000940
9770000,0.0324,0.013523,0.002678,0.000431,0.000940
9771000,0.0324,0.013523,0.002678,0.000431,0.000705
9772000,0.0324,0.013523,0.002678,0.000431,0.001293
9773000,0.0324,0.013523,0.002678,0.000431,0.001175
9774000,0.0324,0.013523,0.002678,0.000431,0.001058
9775000,0.0324,0.013523,0.002678,0.000431,0.000940
9776000,0.0324,0.013523,0.002678,0.000431,0.001175
9777000,0.0324,0.013523,0.002678,0.000431,0.001175
9778000,0.0324,0.013523,0.002678,0.000431,0.001175
9779000,0.0324,0.013523,0.002678,0.000431,0.000705
9780000,0.0324,0.013523,0.002678,0.000431,0.001058
9781000,0.0324,0.013523,0.002678,0.000431,0.000823
9782000,0.0324,0.013523,0.002678,0.000431,0.000823
9783000,0.0324,0.013523,0.002678,0.000431,0.001058
9784000,0.0324,0.013523,0.002678,0.000431,0.001175
9785000,0.0324,0.013523,0.002678,0.000431,0.001293
9786000,0.0324,0.013523,0.002678,0.000431,0.001058
9787000,0.0324,0.013523,0.002678,0.000431,0.000823
9788000,0.0324,0.013523,0.002678,0.000431,0.000823
9789000,0.0324,0.013523,0.002678,0.000431,0.000940
9790000,0.0324,0.013523,0.002678,0.000431,0.001410
9791000,0.0324,0.013523,0.002678,0.000431,0.001175
9792000,0.0324,0.013523,0.002678,0.000431,0.000823
9793000,0.0324,0.013523,0.002678,0.000431,0.001058
9794000,0.0324,0.013523,0.002678,0.000431,0.001175
9795000,0.0324,0.013523,0.002678,0.000431,0.001293
9796000,0.0324,0.013523,0.002678,0.000431,0.001058
9797000,0.0324,0.013523,0.002678,0.000431,0.000940
9798000,0.0324,0.013523,0.002678,0.000431,0.000705
9799000,0.0324,0.013523,0.002678,0.000431,0.000940
9800000,0.0324,0.013523,0.002678,0.000431,0.001410
9801000,0.0324,0.013523,0.002678,0.000431,0.001175
9802000,0.0324,0.013523,0.002678,0.000431,0.000823
9803000,0.0324,0.013523,0.002678,0.000431,0.001058
9804000,0.0324,0.013523,0.002678,0.000431,0.001175
9805000,0.0324,0.013523,0.002678,0.000431,0.000705
9806000,0.0324,0.013523,0.002678,0.000431,0.000588
9807000,0.0324,0.013523,0.002678,0.000431,0.001293
9808000,0.0324,0.013523,0.002678,0.000431,0.001175
9809000,0.0324,0.013523,0.002678,0.000431,0.000823
9810000,0.0324,0.013523,0.002678,0.000431,0.001058
9811000,0.0324,0.013523,0.002678,0.000431,0.000705
9812000,0.0324,0.013523,0.002678,0.000431,0.001293
9813000,0.0324,0.013523,0.002678,0.000431,0.001293
9814000,0.0324,0.013523,0.002678,0.000431,0.001175
9815000,0.0324,0.013523,0.002678,0.000431,0.001175
9816000,0.0324,0.013523,0.002678,0.000431,0.001293
9817000,0.0324,0.013523,0.002678,0.000431,0.001293
9818000,0.0324,0.013523,0.002678,0.000431,0.001175
9819000,0.0324,0.013523,0.002678,0.000431,0.000940
9820000,0.0324,0.013523,0.002678,0.000431,0.001058
9821000,0.0324,0.013523,0.002678,0.000431,0.000823
9822000,0.0324,0.013523,0.002678,0.000431,0.000940
9823000,0.0324,0.013523,0.002678,0.000431,0.000705
9824000,0.0324,0.013523,0.002678,0.000431,0.001175
9825000,0.0324,0.013523,0.002678,0.000431,0.000705
9826000,0.0324,0.013523,0.002678,0.000431,0.001175
9827000,0.0324,0.013523,0.002678,0.000431,0.000705
9828000,0.0324,0.013523,0.002678,0.000431,0.000470
9829000,0.0324,0.013523,0.002678,0.000431,0.001058
9830000,0.0324,0.013523,0.002678,0.000431,0.001058
9831000,0.0324,0.013523,0.002678,0.000431,0.001058
9832000,0.0324,0.013523,0.002678,0.000431,0.000588
9833000,0.0324,0.013523,0.002678,0.000431,0.001293
9834000,0.0324,0.013523,0.002678,0.000431,0.001058
9835000,0.0324,0.013523,0.002678,0.000431,0.001175
9836000,0.0324,0.013523,0.002678,0.000431,0.000940
9837000,0.0324,0.013523,0.002678,0.000431,0.000470
9838000,0.0324,0.013523,0.002678,0.000431,0.001293
9839000,0.0324,0.013523,0.002678,0.000431,0.001058
9840000,0.0324,0.013523,0.002678,0.000431,0.000940
9841000,0.0324,0.013523,0.002678,0.000431,0.001175
9842000,0.0324,0.013523,0.002678,0.000431,0.000470
9843000,0.0324,0.013523,0.002678,0.000431,0.001293
9844000,0.0324,0.013523,0.002678,0.000431,0.001058
9845000,0.0324,0.013523,0.002678,0.000431,0.000705
9846000,0.0324,0.013523,0.002678,0.000431,0.000705
9847000,0.0324,0.013523,0.002678,0.000431,0.000470
9848000,0.0324,0.013523,0.002678,0.000431,0.001293
9849000,0.0324,0.013523,0.002678,0.000431,0.001058
9850000,0.0324,0.013523,0.002678,0.000431,0.000705
9851000,0.0324,0.013523,0.002678,0.000431,0.000705
9852000,0.0324,0.013523,0.002678,0.000431,0.000705
9853000,0.0324,0.013523,0.002678,0.000431,0.001058
9854000,0.0324,0.013523,0.002678,0.000431,0.001293
9855000,0.0324,0.013523,0.002678,0.000431,0.000705
9856000,0.0324,0.013523,0.002678,0.000431,0.001175
9857000,0.0324,0.013523,0.002678,0.000431,0.001175
9858000,0.0324,0.013523,0.002678,0.000431,0.000705
9859000,0.0324,0.013523,0.002678,0.000431,0.000588
9860000,0.0324,0.013523,0.002678,0.000431,0.001058
9861000,0.0324,0.013523,0.002678,0.000431,0.000940
9862000,0.0324,0.013523,0.002678,0.000431,0.001058
9863000,0.0324,0.013523,0.002678,0.000431,0.000940
9864000,0.0324,0.013523,0.002678,0.000431,0.001528
9865000,0.0324,0.013523,0.002678,0.000431,0.001410
9866000,0.0324,0.013523,0.002678,0.000431,0.000940
9867000,0.0324,0.013523,0.002678,0.000431,0.000940
9868000,0.0324,0.013523,0.002678,0.000431,0.001175
9869000,0.0324,0.013523,0.002678,0.000431,0.001175
9870000,0.0324,0.013523,0.002678,0.000431,0.001410
9871000,0.0324,0.013523,0.002678,0.000431,0.001175
9872000,0.0324,0.013523,0.002678,0.000431,0.001293
9873000,0.0324,0.013523,0.002678,0.000431,0.001058
9874000,0.0324,0.013523,0.002678,0.000431,0.000940
9875000,0.0324,0.013523,0.002678,0.000431,0.001175
9876000,0.0324,0.013523,0.002678,0.000431,0.001175
9877000,0.0324,0.013523,0.002678,0.000431,0.001293
9878000,0.0324,0.013523,0.002678,0.000431,0.000588
9879000,0.0324,0.013523,0.002678,0.000431,0.001175
9880000,0.0324,0.013523,0.002678,0.000431,0.000705
9881000,0.0324,0.013523,0.002678,0.000431,0.001175
9882000,0.0324,0.013523,0.002678,0.000431,0.000705
9883000,0.0324,0.013523,0.002678,0.000431,0.001293
9884000,0.0324,0.013523,0.002678,0.000431,0.001058
9885000,0.0324,0.013523,0.002678,0.000431,0.000705
9886000,0.0324,0.013523,0.002678,0.000431,0.001175
9887000,0.0324,0.013523,0.002678,0.000431,0.000705
9888000,0.0324,0.013523,0.002678,0.000431,0.001175
9889000,0.0324,0.013523,0.002678,0.000431,0.000470
9890000,0.0324,0.013523,0.002678,0.000431,0.001410
9891000,0.0324,0.013523,0.002678,0.000431,0.001175
9892000,0.0324,0.013523,0.002678,0.000431,0.000705
9893000,0.0324,0.013523,0.002678,0.000431,0.001175
9894000,0.0324,0.013523,0.002678,0.000431,0.000588
9895000,0.0324,0.013523,0.002678,0.000431,0.001293
9896000,0.0324,0.013523,0.002678,0.000431,0.000470
9897000,0.0324,0.013523,0.002678,0.000431,0.001175
9898000,0.0324,0.013523,0.002678,0.000431,0.000705
9899000,0.0324,0.013523,0.002678,0.000431,0.001175
9900000,0.0324,0.013523,0.002678,0.000431,0.000588
9901000,0.0324,0.013523,0.002678,0.000431,0.000588
9902000,0.0324,0.013523,0.002678,0.000431,0.001058
9903000,0.0324,0.013523,0.002678,0.000431,0.000940
9904000,0.0324,0.013523,0.002678,0.000431,0.001058
9905000,0.0324,0.013523,0.002678,0.000431,0.001293
9906000,0.0324,0.013523,0.002678,0.000431,0.001058
9907000,0.0324,0.013523,0.002678,0.000431,0.000940
9908000,0.0324,0.013523,0.002678,0.000431,0.001293
9909000,0.0324,0.013523,0.002678,0.000431,0.001058
9910000,0.0324,0.013523,0.002678,0.000431,0.000823
9911000,0.0324,0.013523,0.002678,0.000431,0.001058
9912000,0.0324,0.013523,0.002678,0.000431,0.001293
9913000,0.0324,0.013523,0.002678,0.000431,0.000588
9914000,0.0324,0.013523,0.002678,0.000431,0.001175
9915000,0.0324,0.013523,0.002678,0.000431,0.000823
9916000,0.0324,0.013523,0.002678,0.000431,0.001058
9917000,0.0324,0.013523,0.002678,0.000431,0.001175
9918000,0.0324,0.013523,0.002678,0.000431,0.001293
9919000,0.0324,0.013523,0.002678,0.000431,0.000588
9920000,0.0324,0.013523,0.002678,0.000431,0.001175
9921000,0.0324,0.013523,0.002678,0.000431,0.000823
9922000,0.0324,0.013523,0.002678,0.000431,0.001058
9923000,0.0324,0.013523,0.002678,0.000431,0.000705
9924000,0.0324,0.013523,0.002678,0.000431,0.001175
9925000,0.0324,0.013523,0.002678,0.000431,0.001293
9926000,0.0324,0.013523,0.002678,0.000431,0.001058
9927000,0.0324,0.013523,0.002678,0.000431,0.000705
9928000,0.0324,0.013523,0.002678,0.000431,0.000705
9929000,0.0324,0.013523,0.002678,0.000431,0.001175
9930000,0.0324,0.013523,0.002678,0.000431,0.001175
9931000,0.0324,0.013523,0.002678,0.000431,0.000705
9932000,0.0324,0.013523,0.002678,0.000431,0.000823
9933000,0.0324,0.013523,0.002678,0.000431,0.001293
9934000,0.0324,0.013523,0.002678,0.000431,0.000940
9935000,0.0324,0.013523,0.002678,0.000431,0.000705
9936000,0.0324,0.013523,0.002678,0.000431,0.000705
9937000,0.0324,0.013523,0.002678,0.000431,0.001175
9938000,0.0324,0.013523,0.002678,0.000431,0.000705
9939000,0.0324,0.013523,0.002678,0.000431,0.000705
9940000,0.0324,0.013523,0.002678,0.000431,0.001058
9941000,0.0324,0.013523,0.002678,0.000431,0.000823
9942000,0.0324,0.013523,0.002678,0.000431,0.001175
9943000,0.0324,0.013523,0.002678,0.000431,0.001175
9944000,0.0324,0.013523,0.002678,0.000431,0.000470
9945000,0.0324,0.013523,0.002678,0.000431,0.000705
9946000,0.0324,0.013523,0.002678,0.000431,0.000705
9947000,0.0324,0.013523,0.002678,0.000431,0.001175
9948000,0.0324,0.013523,0.002678,0.000431,0.001175
9949000,0.0324,0.013523,0.002678,0.000431,0.001293
9950000,0.0324,0.013523,0.002678,0.000431,0.001058
9951000,0.0324,0.013523,0.002678,0.000431,0.000940
9952000,0.0324,0.013523,0.002678,0.000431,0.001175
9953000,0.0324,0.013523,0.002678,0.000431,0.001175
9954000,0.0324,0.013523,0.002678,0.000431,0.001175
9955000,0.0324,0.013523,0.002678,0.000431,0.001175
9956000,0.0324,0.013523,0.002678,0.000431,0.000705
9957000,0.0324,0.013523,0.002678,0.000431,0.000823
9958000,0.0324,0.013523,0.002678,0.000431,0.001293
9959000,0.0324,0.013523,0.002678,0.000431,0.001058
9960000,0.0324,0.013523,0.002678,0.000431,0.000823
9961000,0.0324,0.013523,0.002678,0.000431,0.001058
9962000,0.0324,0.013523,0.002678,0.000431,0.001293
9963000,0.0324,0.013523,0.002678,0.000431,0.001175
9964000,0.0324,0.013523,0.002678,0.000431,0.000823
9965000,0.0324,0.013523,0.002678,0.000431,0.001058
9966000,0.0324,0.013523,0.002678,0.000431,0.000705
9967000,0.0324,0.013523,0.002678,0.000431,0.001175
9968000,0.0324,0.013523,0.002678,0.000431,0.000588
9969000,0.0324,0.013523,0.002678,0.000431,0.001293
9970000,0.0324,0.013523,0.002678,0.000431,0.000470
9971000,0.0324,0.013523,0.002678,0.000431,0.001293
9972000,0.0324,0.013523,0.002678,0.000431,0.000588
9973000,0.0324,0.013523,0.002678,0.000431,0.000588
9974000,0.0324,0.013523,0.002678,0.000431,0.000823
9975000,0.0324,0.013523,0.002678,0.000431,0.001175
9976000,0.0324,0.013523,0.002678,0.000431,0.001175
9977000,0.0324,0.013523,0.002678,0.000431,0.001175
9978000,0.0324,0.013523,0.002678,0.000431,0.000705
9979000,0.0324,0.013523,0.002678,0.000431,0.000470
9980000,0.0324,0.013523,0.002678,0.000431,0.001293
9981000,0.0324,0.013523,0.002678,0.000431,0.001058
9982000,0.0324,0.013523,0.002678,0.000431,0.000940
9983000,0.0324,0.013523,0.002678,0.000431,0.001175
9984000,0.0324,0.013523,0.002678,0.000431,0.001175
9985000,0.0324,0.013523,0.002678,0.000431,0.000705
9986000,0.0324,0.013523,0.002678,0.000431,0.001175
9987000,0.0324,0.013523,0.002678,0.000431,0.000823
9988000,0.0324,0.013523,0.002678,0.000431,0.001058
9989000,0.0324,0.013523,0.002678,0.000431,0.001175
9990000,0.0324,0.013523,0.002678,0.000431,0.000705
9991000,0.0324,0.013523,0.002678,0.000431,0.001175
9992000,0.0324,0.013523,0.002678,0.000431,0.000588
9993000,0.0324,0.013523,0.002678,0.000431,0.000588
9994000,0.0324,0.013523,0.002678,0.000431,0.001175
9995000,0.0324,0.013523,0.002678,0.000431,0.001175
9996000,0.0324,0.013523,0.002678,0.000431,0.000940
9997000,0.0324,0.013523,0.002678,0.000431,0.001175
9998000,0.0324,0.013523,0.002678,0.000431,0.001175
9999000,0.0324,0.013523,0.002678,0.000431,0.001175
